    Time      Ur        Uinf      Ct_adm    a        Yaw(deg)  Thrust     Power  
    0.000     5.265     5.265     0.507     0.149     0.000  107084.8   563818.7
    0.500     5.302     6.230     0.507     0.149     0.000  108485.6   575159.8
    1.000     5.336     6.270     0.515     0.152     0.000  112151.9   598439.2
    1.500     5.366     6.325     0.515     0.152     0.000  113324.9   608100.6
    2.000     5.393     6.357     0.522     0.154     0.000  116786.1   629853.9
    2.500     5.416     6.404     0.522     0.154     0.000  117683.9   637375.7
    3.000     5.436     6.428     0.529     0.157     0.000  120901.4   657227.4
    3.500     5.452     6.467     0.529     0.157     0.000  121517.3   662500.2
    4.000     5.465     6.483     0.537     0.160     0.000  124488.1   680382.7
    4.500     5.475     6.515     0.537     0.160     0.000  124842.8   683538.9
    5.000     5.483     6.525     0.544     0.162     0.000  127576.2   699516.2
    5.500     5.488     6.551     0.544     0.162     0.000  127698.8   700767.2
    6.000     5.491     6.554     0.544     0.162     0.000  127643.8   700851.4
    6.500     5.492     6.555     0.544     0.162     0.000  127634.4   701001.0
    7.000     5.492     6.555     0.543     0.162     0.000  127483.3   700165.1
    7.500     5.490     6.553     0.543     0.162     0.000  127332.5   699106.6
    8.000     5.487     6.548     0.543     0.162     0.000  127040.0   697006.9
    8.500     5.480     6.540     0.543     0.162     0.000  126714.3   694431.3
    9.000     5.471     6.529     0.543     0.162     0.000  126257.8   690802.6
    9.500     5.459     6.515     0.543     0.162     0.000  125712.1   686319.5
   10.000     5.444     6.497     0.543     0.162     0.000  125107.7   681121.0
   10.500     5.426     6.475     0.543     0.162     0.000  124304.4   674427.6
   11.000     5.403     6.449     0.544     0.162     0.000  123575.2   667732.9
   11.500     5.378     6.420     0.544     0.162     0.000  122502.8   658784.1
   12.000     5.349     6.385     0.545     0.163     0.000  121659.9   650724.0
   12.500     5.317     6.350     0.545     0.163     0.000  120344.7   639818.7
   13.000     5.282     6.308     0.546     0.163     0.000  119382.7   630572.0
   13.500     5.245     6.268     0.546     0.163     0.000  117890.9   618351.0
   14.000     5.207     6.223     0.548     0.164     0.000  116802.8   608198.6
   14.500     5.168     6.180     0.548     0.164     0.000  115231.3   595533.4
   15.000     5.129     6.134     0.549     0.164     0.000  114023.9   584880.4
   15.500     5.091     6.091     0.549     0.164     0.000  112482.8   572698.1
   16.000     5.055     6.048     0.549     0.164     0.000  111185.8   562044.0
   16.500     5.021     6.008     0.549     0.164     0.000  109777.9   551153.7
   17.000     4.989     5.970     0.549     0.164     0.000  108438.7   540992.9
   17.500     4.960     5.936     0.549     0.164     0.000  107241.8   531950.6
   18.000     4.935     5.906     0.548     0.164     0.000  105912.7   522673.1
   18.500     4.913     5.877     0.548     0.164     0.000  104974.0   515756.2
   19.000     4.895     5.855     0.547     0.163     0.000  103703.0   507613.3
   19.500     4.880     5.834     0.547     0.163     0.000  103042.8   502878.9
   20.000     4.869     5.820     0.545     0.163     0.000  101865.4   495984.8
   20.500     4.861     5.805     0.545     0.163     0.000  101485.8   493362.8
   21.000     4.857     5.800     0.542     0.161     0.000  100425.0   487749.0
   21.500     4.856     5.791     0.542     0.161     0.000  100321.5   487144.4
   22.000     4.858     5.793     0.538     0.160     0.000   99397.4   482843.7
   22.500     4.863     5.791     0.538     0.160     0.000   99563.9   484184.8
   23.000     4.871     5.800     0.534     0.159     0.000   98799.8   481267.5
   23.500     4.883     5.804     0.534     0.159     0.000   99224.8   484470.4
   24.000     4.896     5.821     0.530     0.157     0.000   98641.0   482988.3
   24.500     4.913     5.830     0.530     0.157     0.000   99298.5   487880.4
   25.000     4.932     5.852     0.526     0.156     0.000   98899.4   487773.0
   25.500     4.953     5.867     0.526     0.156     0.000   99742.5   494028.4
   26.000     4.975     5.893     0.522     0.154     0.000   99504.7   495047.3
   26.500     4.999     5.910     0.522     0.154     0.000  100465.1   502175.6
   27.000     5.022     5.938     0.518     0.153     0.000  100335.7   503881.3
   27.500     5.046     5.956     0.518     0.153     0.000  101333.1   511300.5
   28.000     5.069     5.983     0.514     0.151     0.000  101246.7   513188.4
   28.500     5.091     6.000     0.514     0.151     0.000  102204.1   520341.3
   29.000     5.112     6.025     0.511     0.150     0.000  102115.1   522041.8
   29.500     5.132     6.040     0.511     0.150     0.000  102972.9   528506.6
   30.000     5.151     6.062     0.508     0.149     0.000  102875.1   529913.7
   30.500     5.169     6.075     0.508     0.149     0.000  103601.0   535470.4
   31.000     5.185     6.093     0.505     0.148     0.000  103528.1   536751.4
   31.500     5.200     6.105     0.505     0.148     0.000  104119.2   541392.2
   32.000     5.214     6.121     0.503     0.148     0.000  104125.2   542881.0
   32.500     5.227     6.133     0.503     0.148     0.000  104602.3   546777.9
   33.000     5.240     6.148     0.502     0.147     0.000  104735.3   548817.4
   33.500     5.253     6.160     0.502     0.147     0.000  105129.2   552207.1
   34.000     5.265     6.174     0.502     0.147     0.000  105408.6   554972.1
   34.500     5.277     6.188     0.502     0.147     0.000  105744.8   558025.0
   35.000     5.289     6.202     0.502     0.147     0.000  106145.4   561400.3
   35.500     5.300     6.216     0.502     0.147     0.000  106436.5   564165.5
   36.000     5.312     6.229     0.503     0.148     0.000  106895.2   567783.4
   36.500     5.322     6.243     0.503     0.148     0.000  107140.2   570201.1
   37.000     5.332     6.254     0.504     0.148     0.000  107578.4   573574.6
   37.500     5.340     6.266     0.504     0.148     0.000  107765.1   575494.5
   38.000     5.348     6.275     0.504     0.148     0.000  108111.1   578143.4
   38.500     5.354     6.283     0.504     0.148     0.000  108220.0   579360.3
   39.000     5.358     6.288     0.505     0.148     0.000  108416.4   580870.8
   39.500     5.360     6.292     0.505     0.148     0.000  108428.6   581186.7
   40.000     5.360     6.293     0.505     0.148     0.000  108433.0   581248.3
   40.500     5.359     6.291     0.505     0.148     0.000  108337.9   580553.9
   41.000     5.355     6.287     0.505     0.148     0.000  108123.6   579003.6
   41.500     5.349     6.280     0.505     0.148     0.000  107925.1   577336.9
   42.000     5.342     6.271     0.504     0.148     0.000  107487.5   574205.5
   42.500     5.333     6.259     0.504     0.148     0.000  107205.6   571760.1
   43.000     5.323     6.247     0.503     0.148     0.000  106565.8   567276.7
   43.500     5.312     6.232     0.503     0.148     0.000  106233.2   564357.0
   44.000     5.301     6.218     0.502     0.147     0.000  105441.4   558937.8
   44.500     5.289     6.201     0.502     0.147     0.000  105100.8   555921.3
   45.000     5.278     6.187     0.500     0.146     0.000  104237.1   550154.5
   45.500     5.267     6.170     0.500     0.146     0.000  103937.6   547461.3
   46.000     5.257     6.159     0.498     0.146     0.000  103103.6   542048.7
   46.500     5.249     6.144     0.498     0.146     0.000  102895.7   540107.5
   47.000     5.242     6.136     0.496     0.145     0.000  102200.8   535786.6
   47.500     5.238     6.127     0.496     0.145     0.000  102131.0   534997.6
   48.000     5.237     6.125     0.494     0.144     0.000  101673.8   532425.2
   48.500     5.238     6.122     0.494     0.144     0.000  101775.8   533085.7
   49.000     5.242     6.127     0.493     0.144     0.000  101625.1   532708.7
   49.500     5.249     6.132     0.493     0.144     0.000  101911.3   534938.9
   50.000     5.259     6.144     0.493     0.144     0.000  102089.8   536890.4
   50.500     5.272     6.157     0.493     0.144     0.000  102548.2   540600.8
   51.000     5.287     6.175     0.492     0.144     0.000  103024.7   544656.9
   51.500     5.304     6.194     0.492     0.144     0.000  103621.2   549573.1
   52.000     5.322     6.216     0.492     0.144     0.000  104309.8   555167.2
   52.500     5.342     6.239     0.492     0.144     0.000  104995.3   560893.8
   53.000     5.363     6.263     0.493     0.144     0.000  105768.0   567199.8
   53.500     5.384     6.288     0.493     0.144     0.000  106487.3   573289.2
   54.000     5.405     6.313     0.493     0.144     0.000  107202.8   579394.6
   54.500     5.425     6.337     0.493     0.144     0.000  107903.9   585424.6
   55.000     5.446     6.361     0.492     0.144     0.000  108452.3   590598.1
   55.500     5.465     6.383     0.492     0.144     0.000  109098.1   596264.7
   56.000     5.484     6.405     0.491     0.143     0.000  109440.5   600211.1
   56.500     5.503     6.424     0.491     0.143     0.000  110018.8   605413.2
   57.000     5.521     6.445     0.490     0.143     0.000  110197.0   608358.3
   57.500     5.538     6.463     0.490     0.143     0.000  110721.6   613210.3
   58.000     5.556     6.483     0.489     0.143     0.000  110833.3   615756.3
   58.500     5.573     6.500     0.489     0.143     0.000  111333.3   620494.3
   59.000     5.591     6.521     0.488     0.142     0.000  111482.8   623290.3
   59.500     5.609     6.539     0.488     0.142     0.000  111983.2   628094.0
   60.000     5.627     6.559     0.487     0.142     0.000  112233.0   631496.8
   60.500     5.644     6.578     0.487     0.142     0.000  112737.1   636333.8
   61.000     5.662     6.598     0.487     0.142     0.000  113081.4   640212.8
   61.500     5.678     6.616     0.487     0.142     0.000  113564.1   644787.3
   62.000     5.692     6.633     0.486     0.142     0.000  113935.4   648571.8
   62.500     5.705     6.647     0.486     0.142     0.000  114348.0   652384.4
   63.000     5.716     6.659     0.486     0.142     0.000  114649.8   655289.3
   63.500     5.723     6.667     0.486     0.142     0.000  114930.0   657743.2
   64.000     5.727     6.672     0.486     0.142     0.000  115076.4   659046.5
   64.500     5.727     6.672     0.486     0.142     0.000  115160.7   659568.6
   65.000     5.724     6.668     0.486     0.142     0.000  115103.3   658817.3
   65.500     5.716     6.658     0.486     0.142     0.000  114941.9   656994.5
   66.000     5.704     6.644     0.486     0.142     0.000  114675.0   654091.0
   66.500     5.688     6.626     0.486     0.142     0.000  114245.9   649803.8
   67.000     5.668     6.603     0.486     0.142     0.000  113796.5   644984.0
   67.500     5.645     6.576     0.486     0.142     0.000  113115.2   638481.3
   68.000     5.618     6.546     0.487     0.142     0.000  112522.9   632192.9
   68.500     5.590     6.514     0.487     0.142     0.000  111639.8   624043.6
   69.000     5.560     6.479     0.488     0.142     0.000  110940.9   616797.6
   69.500     5.528     6.445     0.488     0.142     0.000  109929.3   607741.7
   70.000     5.497     6.408     0.489     0.142     0.000  109150.0   599993.3
   70.500     5.465     6.374     0.489     0.142     0.000  108088.5   590753.2
   71.000     5.435     6.338     0.489     0.143     0.000  107248.4   582855.5
   71.500     5.405     6.305     0.489     0.143     0.000  106208.1   574020.8
   72.000     5.376     6.271     0.490     0.143     0.000  105332.3   566275.2
   72.500     5.349     6.241     0.490     0.143     0.000  104372.0   558285.0
   73.000     5.324     6.211     0.490     0.143     0.000  103502.9   551022.9
   73.500     5.301     6.184     0.490     0.143     0.000  102671.5   544214.6
   74.000     5.280     6.160     0.490     0.143     0.000  101876.8   537875.2
   74.500     5.261     6.138     0.490     0.143     0.000  101217.3   532542.0
   75.000     5.246     6.120     0.490     0.143     0.000  100586.1   527666.6
   75.500     5.234     6.105     0.490     0.143     0.000  100137.0   524078.9
   76.000     5.225     6.095     0.489     0.143     0.000   99767.1   521251.1
   76.500     5.219     6.088     0.489     0.143     0.000   99558.2   519626.0
   77.000     5.218     6.086     0.490     0.143     0.000   99534.6   519334.1
   77.500     5.220     6.089     0.490     0.143     0.000   99572.9   519722.5
   78.000     5.225     6.095     0.490     0.143     0.000   99943.4   522191.1
   78.500     5.233     6.107     0.490     0.143     0.000  100197.3   524348.9
   79.000     5.244     6.120     0.492     0.144     0.000  100957.1   529423.4
   79.500     5.257     6.138     0.492     0.144     0.000  101353.2   532769.2
   80.000     5.270     6.154     0.494     0.144     0.000  102444.6   539912.7
   80.500     5.284     6.175     0.494     0.144     0.000  102875.2   543585.7
   81.000     5.297     6.191     0.497     0.145     0.000  104201.3   551974.7
   81.500     5.309     6.212     0.497     0.145     0.000  104542.5   554974.6
   82.000     5.318     6.223     0.501     0.147     0.000  105990.0   563673.6
   82.500     5.325     6.241     0.501     0.147     0.000  106130.4   565094.7
   83.000     5.328     6.246     0.506     0.149     0.000  107602.1   573333.7
   83.500     5.328     6.258     0.506     0.149     0.000  107481.6   572691.6
   84.000     5.326     6.255     0.511     0.151     0.000  108919.9   580085.2
   84.500     5.320     6.262     0.511     0.151     0.000  108553.2   577489.7
   85.000     5.312     6.254     0.517     0.153     0.000  109936.4   584011.4
   85.500     5.302     6.257     0.517     0.153     0.000  109403.3   580061.6
   86.000     5.291     6.245     0.524     0.155     0.000  110737.8   585940.1
   86.500     5.279     6.246     0.524     0.155     0.000  110151.2   581481.6
   87.000     5.267     6.233     0.530     0.157     0.000  111464.1   587114.4
   87.500     5.255     6.235     0.530     0.157     0.000  110932.7   582993.4
   88.000     5.245     6.223     0.535     0.159     0.000  112232.6   588683.5
   88.500     5.236     6.227     0.535     0.159     0.000  111828.7   585502.9
   89.000     5.229     6.218     0.540     0.161     0.000  113091.4   591298.7
   89.500     5.222     6.225     0.540     0.161     0.000  112832.6   589245.1
   90.000     5.218     6.220     0.545     0.163     0.000  114007.6   594912.4
   90.500     5.215     6.228     0.545     0.163     0.000  113857.6   593735.2
   91.000     5.213     6.225     0.552     0.165     0.000  115951.8   604403.5
   91.500     5.209     6.241     0.552     0.165     0.000  115804.9   603277.7
   92.000     5.207     6.238     0.559     0.168     0.000  117858.3   613653.7
   92.500     5.202     6.252     0.559     0.168     0.000  117639.7   611988.4
   93.000     5.197     6.246     0.566     0.170     0.000  119584.9   621535.2
   93.500     5.190     6.257     0.566     0.170     0.000  119243.8   618922.5
   94.000     5.183     6.248     0.572     0.173     0.000  121041.8   627325.2
   94.500     5.173     6.255     0.572     0.173     0.000  120560.2   623617.7
   95.000     5.162     6.242     0.579     0.176     0.000  122203.9   630822.8
   95.500     5.149     6.246     0.579     0.176     0.000  121594.0   626133.5
   96.000     5.137     6.231     0.584     0.178     0.000  122656.7   630039.4
   96.500     5.123     6.229     0.584     0.178     0.000  121968.7   624813.1
   97.000     5.109     6.213     0.588     0.179     0.000  122501.4   625907.5
   97.500     5.096     6.207     0.588     0.179     0.000  121783.8   620591.5
   98.000     5.083     6.192     0.591     0.180     0.000  121887.2   619571.3
   98.500     5.071     6.184     0.591     0.180     0.000  121164.3   614376.2
   99.000     5.059     6.169     0.593     0.181     0.000  121119.5   612703.2
   99.500     5.047     6.161     0.593     0.181     0.000  120386.5   607537.6
  100.000     5.035     6.146     0.595     0.182     0.000  120549.2   606925.0
  100.500     5.022     6.139     0.595     0.182     0.000  119798.2   601646.5
  101.000     5.010     6.124     0.597     0.183     0.000  119650.0   599435.6
  101.500     4.998     6.115     0.597     0.183     0.000  118924.6   594331.6
  102.000     4.986     6.100     0.597     0.183     0.000  118309.3   589872.5
  102.500     4.975     6.088     0.597     0.183     0.000  117679.9   585457.5
  103.000     4.965     6.076     0.598     0.183     0.000  117433.5   583089.8
  103.500     4.957     6.068     0.598     0.183     0.000  116935.8   579605.6
  104.000     4.949     6.059     0.598     0.183     0.000  116352.1   575881.2
  104.500     4.944     6.051     0.598     0.183     0.000  116046.8   573750.4
  105.000     4.941     6.047     0.599     0.183     0.000  116045.3   573325.5
  105.500     4.939     6.046     0.599     0.183     0.000  115948.5   572621.8
  106.000     4.939     6.046     0.597     0.183     0.000  115596.9   570888.2
  106.500     4.941     6.046     0.597     0.183     0.000  115764.8   572003.1
  107.000     4.946     6.052     0.595     0.182     0.000  115246.7   569987.0
  107.500     4.954     6.053     0.595     0.182     0.000  115726.2   573272.4
  108.000     4.964     6.066     0.592     0.180     0.000  115431.2   573022.1
  108.500     4.978     6.075     0.592     0.180     0.000  116249.0   578720.8
  109.000     4.995     6.095     0.588     0.179     0.000  115971.5   579310.3
  109.500     5.016     6.109     0.588     0.179     0.000  117142.2   587628.1
  110.000     5.040     6.138     0.583     0.177     0.000  116959.4   589516.0
  110.500     5.068     6.159     0.583     0.177     0.000  118459.9   600398.6
  111.000     5.099     6.195     0.577     0.175     0.000  118334.7   603364.0
  111.500     5.133     6.221     0.577     0.175     0.000  120099.5   616429.9
  112.000     5.168     6.263     0.572     0.173     0.000  120165.0   621004.5
  112.500     5.206     6.293     0.572     0.173     0.000  122091.2   635547.8
  113.000     5.243     6.338     0.566     0.171     0.000  122229.6   640887.1
  113.500     5.282     6.369     0.566     0.171     0.000  124203.3   656070.9
  114.000     5.320     6.415     0.561     0.169     0.000  124257.7   661084.9
  114.500     5.359     6.445     0.561     0.169     0.000  126174.3   676107.2
  115.000     5.395     6.489     0.556     0.167     0.000  126278.2   681276.5
  115.500     5.431     6.517     0.556     0.167     0.000  128052.1   695447.3
  116.000     5.465     6.558     0.554     0.166     0.000  129091.6   705443.8
  116.500     5.497     6.591     0.554     0.166     0.000  130648.2   718117.1
  117.000     5.526     6.626     0.549     0.164     0.000  130209.9   719558.8
  117.500     5.555     6.645     0.549     0.164     0.000  131566.0   730839.8
  118.000     5.581     6.677     0.544     0.162     0.000  131156.2   732045.6
  118.500     5.607     6.694     0.544     0.162     0.000  132319.9   741950.5
  119.000     5.631     6.722     0.539     0.161     0.000  131717.1   741707.7
  119.500     5.654     6.737     0.539     0.161     0.000  132722.4   750469.8
  120.000     5.676     6.762     0.536     0.160     0.000  132557.3   752417.5
  120.500     5.697     6.779     0.536     0.160     0.000  133428.1   760176.5
  121.000     5.717     6.802     0.531     0.157     0.000  132155.0   755529.1
  121.500     5.737     6.809     0.531     0.157     0.000  132953.0   762751.2
  122.000     5.756     6.831     0.527     0.156     0.000  132332.9   761655.7
  122.500     5.774     6.842     0.527     0.156     0.000  133052.6   768226.1
  123.000     5.791     6.862     0.523     0.155     0.000  132124.3   765077.1
  123.500     5.807     6.868     0.523     0.155     0.000  132772.2   771004.3
  124.000     5.822     6.886     0.518     0.153     0.000  131676.8   766573.8
  124.500     5.836     6.889     0.518     0.153     0.000  132240.2   771722.1
  125.000     5.848     6.903     0.514     0.151     0.000  131273.4   767671.1
  125.500     5.859     6.905     0.514     0.151     0.000  131721.4   771753.7
  126.000     5.868     6.915     0.510     0.150     0.000  130537.8   765964.2
  126.500     5.875     6.912     0.510     0.150     0.000  130841.7   768724.0
  127.000     5.880     6.917     0.506     0.149     0.000  129562.3   761819.6
  127.500     5.883     6.909     0.506     0.149     0.000  129682.8   762905.3
  128.000     5.883     6.909     0.502     0.147     0.000  128348.1   755013.9
  128.500     5.880     6.895     0.502     0.147     0.000  128241.5   754038.2
  129.000     5.873     6.888     0.498     0.146     0.000  126625.0   743727.0
  129.500     5.864     6.866     0.498     0.146     0.000  126265.0   740464.0
  130.000     5.851     6.851     0.495     0.145     0.000  124544.6   728761.1
  130.500     5.836     6.823     0.495     0.145     0.000  123923.8   723164.9
  131.000     5.816     6.800     0.492     0.144     0.000  122076.7   710002.7
  131.500     5.794     6.766     0.492     0.144     0.000  121222.3   702353.8
  132.000     5.769     6.736     0.490     0.143     0.000  119451.1   689084.9
  132.500     5.742     6.698     0.490     0.143     0.000  118417.7   679909.4
  133.000     5.712     6.664     0.488     0.142     0.000  116640.4   666303.3
  133.500     5.682     6.624     0.488     0.142     0.000  115515.8   656411.6
  134.000     5.652     6.588     0.486     0.141     0.000  113784.1   643081.8
  134.500     5.622     6.548     0.486     0.141     0.000  112676.9   633432.4
  135.000     5.592     6.514     0.484     0.141     0.000  111142.7   621564.9
  135.500     5.565     6.479     0.484     0.141     0.000  110166.1   613114.4
  136.000     5.541     6.450     0.483     0.141     0.000  108936.6   603582.7
  136.500     5.519     6.422     0.483     0.141     0.000  108192.5   597154.5
  137.000     5.502     6.402     0.482     0.140     0.000  107171.6   589627.7
  137.500     5.488     6.383     0.482     0.140     0.000  106735.9   585809.6
  138.000     5.479     6.372     0.481     0.140     0.000  106122.5   581476.9
  138.500     5.475     6.364     0.481     0.140     0.000  106015.9   580397.5
  139.000     5.474     6.363     0.480     0.139     0.000  105828.5   579294.8
  139.500     5.477     6.364     0.480     0.139     0.000  106015.1   580633.7
  140.000     5.483     6.371     0.479     0.139     0.000  106157.9   582052.7
  140.500     5.491     6.380     0.479     0.139     0.000  106563.4   585185.0
  141.000     5.502     6.392     0.479     0.139     0.000  106928.6   588294.0
  141.500     5.513     6.405     0.479     0.139     0.000  107468.7   592519.7
  142.000     5.526     6.419     0.479     0.139     0.000  108046.9   597059.9
  142.500     5.539     6.434     0.479     0.139     0.000  108656.6   601852.7
  143.000     5.553     6.450     0.479     0.139     0.000  109367.0   607272.5
  143.500     5.567     6.467     0.479     0.139     0.000  110015.1   612413.5
  144.000     5.581     6.484     0.480     0.139     0.000  110801.9   618410.7
  144.500     5.596     6.503     0.480     0.139     0.000  111477.2   623871.4
  145.000     5.612     6.521     0.480     0.140     0.000  112367.7   630634.4
  145.500     5.628     6.541     0.480     0.140     0.000  113048.6   636290.0
  146.000     5.645     6.561     0.481     0.140     0.000  113870.8   642791.8
  146.500     5.661     6.581     0.481     0.140     0.000  114508.9   648240.4
  147.000     5.676     6.598     0.481     0.140     0.000  115260.2   654262.2
  147.500     5.690     6.616     0.481     0.140     0.000  115781.5   658822.7
  148.000     5.702     6.630     0.481     0.140     0.000  116270.8   662985.5
  148.500     5.711     6.641     0.481     0.140     0.000  116609.3   666005.5
  149.000     5.718     6.648     0.481     0.140     0.000  116835.3   668062.5
  149.500     5.722     6.653     0.481     0.140     0.000  116959.5   669196.2
  150.000     5.722     6.654     0.481     0.140     0.000  116845.7   668632.1
  150.500     5.721     6.650     0.481     0.140     0.000  116777.4   668035.3
  151.000     5.717     6.646     0.481     0.140     0.000  116460.0   665747.5
  151.500     5.711     6.638     0.481     0.140     0.000  116255.4   663920.2
  152.000     5.704     6.630     0.480     0.139     0.000  115763.3   660325.0
  152.500     5.697     6.620     0.480     0.139     0.000  115509.8   658061.9
  153.000     5.690     6.612     0.479     0.139     0.000  115026.0   654506.7
  153.500     5.684     6.603     0.479     0.139     0.000  114803.3   652534.0
  154.000     5.679     6.597     0.478     0.139     0.000  114335.6   649291.7
  154.500     5.675     6.590     0.478     0.139     0.000  114199.2   648103.8
  155.000     5.673     6.588     0.478     0.139     0.000  114033.5   646911.6
  155.500     5.672     6.586     0.478     0.139     0.000  113997.5   646620.9
  156.000     5.673     6.587     0.478     0.139     0.000  113947.4   646397.0
  156.500     5.674     6.588     0.478     0.139     0.000  114001.4   646893.6
  157.000     5.677     6.591     0.478     0.139     0.000  114102.3   647754.9
  157.500     5.680     6.595     0.478     0.139     0.000  114216.0   648760.4
  158.000     5.684     6.599     0.478     0.139     0.000  114464.9   650579.6
  158.500     5.687     6.604     0.478     0.139     0.000  114603.5   651786.3
  159.000     5.691     6.608     0.479     0.139     0.000  115003.3   654484.4
  159.500     5.694     6.615     0.479     0.139     0.000  115135.9   655633.6
  160.000     5.698     6.618     0.480     0.140     0.000  115727.1   659376.4
  160.500     5.700     6.625     0.480     0.140     0.000  115827.6   660258.9
  161.000     5.703     6.628     0.482     0.140     0.000  116584.2   664845.7
  161.500     5.704     6.635     0.482     0.140     0.000  116626.9   665260.2
  162.000     5.705     6.636     0.485     0.141     0.000  117549.9   670633.1
  162.500     5.705     6.643     0.485     0.141     0.000  117500.6   670298.2
  163.000     5.703     6.641     0.487     0.142     0.000  118192.6   674079.3
  163.500     5.700     6.644     0.487     0.142     0.000  118016.0   672693.7
  164.000     5.695     6.638     0.491     0.143     0.000  118834.0   676796.9
  164.500     5.688     6.638     0.491     0.143     0.000  118481.4   673929.0
  165.000     5.679     6.627     0.494     0.144     0.000  119262.9   677279.4
  165.500     5.667     6.623     0.494     0.144     0.000  118707.9   672690.4
  166.000     5.653     6.607     0.498     0.146     0.000  119392.7   674893.0
  166.500     5.636     6.598     0.498     0.146     0.000  118645.6   668673.0
  167.000     5.618     6.576     0.503     0.147     0.000  119325.5   670322.8
  167.500     5.597     6.564     0.503     0.147     0.000  118433.3   662887.7
  168.000     5.576     6.540     0.507     0.149     0.000  118965.2   663368.7
  168.500     5.554     6.526     0.507     0.149     0.000  118010.6   655441.4
  169.000     5.533     6.500     0.511     0.150     0.000  118446.7   655316.6
  169.500     5.511     6.486     0.511     0.150     0.000  117519.2   647660.2
  170.000     5.491     6.463     0.515     0.152     0.000  117911.6   647466.4
  170.500     5.472     6.451     0.515     0.152     0.000  117085.9   640697.9
  171.000     5.455     6.431     0.519     0.153     0.000  117659.6   641838.5
  171.500     5.439     6.423     0.519     0.153     0.000  116976.2   636270.6
  172.000     5.426     6.407     0.523     0.154     0.000  117605.9   638114.7
  172.500     5.414     6.403     0.523     0.154     0.000  117081.0   633850.0
  173.000     5.404     6.391     0.526     0.156     0.000  117821.4   636683.7
  173.500     5.395     6.391     0.526     0.156     0.000  117443.0   633597.8
  174.000     5.388     6.382     0.530     0.157     0.000  118300.3   637382.4
  174.500     5.381     6.384     0.530     0.157     0.000  118038.1   635214.1
  175.000     5.376     6.378     0.533     0.158     0.000  119066.6   640142.4
  175.500     5.371     6.383     0.533     0.158     0.000  118877.6   638542.7
  176.000     5.367     6.378     0.537     0.160     0.000  119977.4   643962.9
  176.500     5.363     6.384     0.537     0.160     0.000  119817.7   642587.6
  177.000     5.359     6.379     0.541     0.161     0.000  120959.6   648239.9
  177.500     5.355     6.385     0.541     0.161     0.000  120789.2   646775.6
  178.000     5.350     6.379     0.545     0.163     0.000  121931.7   652348.4
  178.500     5.345     6.384     0.545     0.163     0.000  121719.5   650554.4
  179.000     5.339     6.377     0.549     0.164     0.000  122656.0   654883.5
  179.500     5.333     6.379     0.549     0.164     0.000  122388.6   652662.3
  180.000     5.326     6.371     0.552     0.165     0.000  123309.3   656749.2
  180.500     5.318     6.372     0.552     0.165     0.000  122975.6   654020.2
  181.000     5.310     6.363     0.557     0.167     0.000  124259.7   659856.8
  181.500     5.301     6.366     0.557     0.167     0.000  123839.8   656463.1
  182.000     5.291     6.354     0.561     0.169     0.000  124615.2   659363.5
  182.500     5.280     6.351     0.561     0.169     0.000  124119.4   655384.6
  183.000     5.269     6.338     0.565     0.170     0.000  124935.7   658277.1
  183.500     5.256     6.334     0.565     0.170     0.000  124354.2   653628.2
  184.000     5.243     6.318     0.569     0.172     0.000  125107.0   655926.3
  184.500     5.228     6.312     0.569     0.172     0.000  124437.1   650584.3
  185.000     5.213     6.293     0.573     0.173     0.000  125260.4   652983.0
  185.500     5.196     6.286     0.573     0.173     0.000  124500.7   646943.5
  186.000     5.179     6.266     0.579     0.175     0.000  125520.8   650099.9
  186.500     5.161     6.259     0.579     0.175     0.000  124672.2   643386.8
  187.000     5.142     6.236     0.584     0.177     0.000  125527.9   645447.6
  187.500     5.122     6.227     0.584     0.177     0.000  124612.3   638251.0
  188.000     5.102     6.203     0.590     0.180     0.000  125711.3   641379.6
  188.500     5.081     6.195     0.590     0.180     0.000  124739.9   633801.6
  189.000     5.060     6.170     0.596     0.182     0.000  125907.8   637136.0
  189.500     5.039     6.162     0.596     0.182     0.000  124903.0   629359.2
  190.000     5.018     6.137     0.603     0.185     0.000  126018.7   632349.3
  190.500     4.996     6.129     0.603     0.185     0.000  125009.9   624602.4
  191.000     4.976     6.104     0.609     0.187     0.000  126103.1   627476.6
  191.500     4.955     6.097     0.609     0.187     0.000  125119.1   619976.2
  192.000     4.936     6.073     0.615     0.190     0.000  126220.2   622960.1
  192.500     4.916     6.068     0.615     0.190     0.000  125291.5   615926.4
  193.000     4.898     6.045     0.621     0.192     0.000  126435.3   619273.7
  193.500     4.880     6.042     0.621     0.192     0.000  125597.6   612964.6
  194.000     4.865     6.023     0.627     0.195     0.000  126827.5   616990.7
  194.500     4.850     6.023     0.627     0.195     0.000  126125.3   611728.7
  195.000     4.838     6.008     0.633     0.197     0.000  127494.5   616823.2
  195.500     4.827     6.013     0.633     0.197     0.000  126979.5   612985.0
  196.000     4.820     6.003     0.639     0.200     0.000  128547.2   619585.0
  196.500     4.814     6.014     0.639     0.200     0.000  128271.4   617556.9
  197.000     4.813     6.012     0.645     0.202     0.000  130091.3   626071.9
  197.500     4.813     6.031     0.645     0.202     0.000  130094.4   626160.1
  198.000     4.817     6.036     0.648     0.203     0.000  131408.3   633052.0
  198.500     4.825     6.056     0.648     0.203     0.000  131727.9   635554.0
  199.000     4.836     6.070     0.650     0.204     0.000  132954.6   642913.2
  199.500     4.849     6.094     0.650     0.204     0.000  133567.8   647690.1
  200.000     4.865     6.114     0.651     0.205     0.000  134797.2   655849.2
  200.500     4.884     6.141     0.651     0.205     0.000  135625.0   662335.3
  201.000     4.903     6.166     0.652     0.205     0.000  136678.4   670153.0
  201.500     4.923     6.193     0.652     0.205     0.000  137598.4   677431.1
  202.000     4.943     6.218     0.652     0.205     0.000  138404.2   684164.7
  202.500     4.962     6.241     0.652     0.205     0.000  139275.5   691143.6
  203.000     4.980     6.263     0.650     0.204     0.000  139337.8   693915.9
  203.500     4.996     6.277     0.650     0.204     0.000  140057.4   699767.2
  204.000     5.010     6.294     0.647     0.203     0.000  139831.4   700581.3
  204.500     5.022     6.302     0.647     0.203     0.000  140342.1   704834.3
  205.000     5.032     6.314     0.645     0.202     0.000  139809.2   703516.9
  205.500     5.040     6.316     0.645     0.202     0.000  140121.9   706240.1
  206.000     5.046     6.324     0.642     0.201     0.000  139344.0   703196.6
  206.500     5.052     6.322     0.642     0.201     0.000  139511.7   704792.2
  207.000     5.056     6.327     0.639     0.200     0.000  138646.8   700980.3
  207.500     5.059     6.322     0.639     0.200     0.000  138727.5   701884.9
  208.000     5.062     6.326     0.636     0.199     0.000  137722.8   697163.8
  208.500     5.065     6.319     0.636     0.199     0.000  137764.4   697725.2
  209.000     5.066     6.321     0.633     0.197     0.000  136703.0   692595.1
  209.500     5.068     6.314     0.633     0.197     0.000  136734.3   693010.7
  210.000     5.070     6.316     0.632     0.196     0.000  136054.3   689734.9
  210.500     5.071     6.311     0.632     0.196     0.000  136080.7   690033.0
  211.000     5.072     6.312     0.626     0.194     0.000  134226.8   680736.9
  211.500     5.073     6.297     0.626     0.194     0.000  134311.8   681409.4
  212.000     5.075     6.299     0.623     0.193     0.000  133179.6   675878.1
  212.500     5.077     6.291     0.623     0.193     0.000  133321.3   676921.4
  213.000     5.080     6.294     0.618     0.191     0.000  131983.5   670469.3
  213.500     5.084     6.285     0.618     0.191     0.000  132217.8   672184.9
  214.000     5.088     6.291     0.614     0.189     0.000  130863.4   665883.4
  214.500     5.095     6.284     0.614     0.189     0.000  131216.1   668498.8
  215.000     5.102     6.292     0.608     0.187     0.000  129750.4   661938.6
  215.500     5.111     6.287     0.608     0.187     0.000  130238.9   665617.1
  216.000     5.121     6.299     0.602     0.185     0.000  128687.0   658959.9
  216.500     5.133     6.295     0.602     0.185     0.000  129311.4   663726.0
  217.000     5.146     6.311     0.596     0.182     0.000  127816.4   657683.6
  217.500     5.160     6.310     0.596     0.182     0.000  128558.9   663408.6
  218.000     5.176     6.328     0.589     0.180     0.000  127143.8   658032.9
  218.500     5.192     6.329     0.589     0.180     0.000  127980.7   664530.5
  219.000     5.209     6.350     0.583     0.177     0.000  126621.4   659622.4
  219.500     5.228     6.353     0.583     0.177     0.000  127534.4   666743.0
  220.000     5.246     6.375     0.576     0.175     0.000  126216.6   662177.2
  220.500     5.266     6.380     0.576     0.175     0.000  127197.2   669851.2
  221.000     5.286     6.404     0.570     0.172     0.000  126156.4   666856.9
  221.500     5.307     6.412     0.570     0.172     0.000  127198.0   675038.8
  222.000     5.328     6.437     0.566     0.170     0.000  126635.7   674698.0
  222.500     5.350     6.449     0.566     0.170     0.000  127726.6   683308.3
  223.000     5.371     6.475     0.562     0.169     0.000  127425.7   684466.3
  223.500     5.394     6.491     0.562     0.169     0.000  128552.1   693412.5
  224.000     5.416     6.517     0.558     0.167     0.000  128318.0   694998.0
  224.500     5.439     6.533     0.558     0.167     0.000  129458.5   704118.7
  225.000     5.461     6.560     0.554     0.166     0.000  129369.0   706491.5
  225.500     5.483     6.576     0.554     0.166     0.000  130490.8   715513.6
  226.000     5.504     6.602     0.550     0.165     0.000  130229.8   716844.7
  226.500     5.526     6.616     0.550     0.165     0.000  131310.8   725565.3
  227.000     5.545     6.639     0.546     0.163     0.000  130874.6   725758.5
  227.500     5.565     6.651     0.546     0.163     0.000  131904.8   734079.2
  228.000     5.584     6.673     0.542     0.162     0.000  131250.0   732874.4
  228.500     5.603     6.682     0.542     0.162     0.000  132232.2   740832.1
  229.000     5.620     6.703     0.535     0.159     0.000  130862.7   735476.4
  229.500     5.639     6.706     0.535     0.159     0.000  131813.5   743257.2
  230.000     5.656     6.727     0.528     0.157     0.000  130123.7   736021.0
  230.500     5.675     6.728     0.528     0.157     0.000  131040.9   743652.5
  231.000     5.693     6.749     0.521     0.154     0.000  129238.9   735716.9
  231.500     5.711     6.750     0.521     0.154     0.000  130112.1   743123.6
  232.000     5.729     6.771     0.513     0.151     0.000  128230.3   734653.1
  232.500     5.748     6.772     0.513     0.151     0.000  129064.9   741866.7
  233.000     5.766     6.793     0.506     0.148     0.000  127123.8   733015.4
  233.500     5.786     6.795     0.506     0.148     0.000  127952.4   740305.9
  234.000     5.805     6.817     0.498     0.146     0.000  125993.7   731416.9
  234.500     5.827     6.821     0.498     0.146     0.000  126863.4   739175.8
  235.000     5.848     6.846     0.490     0.143     0.000  124931.7   730602.7
  235.500     5.872     6.852     0.490     0.143     0.000  125887.5   739174.7
  236.000     5.896     6.880     0.482     0.140     0.000  124021.0   731189.4
  236.500     5.922     6.888     0.482     0.140     0.000  125104.7   740886.4
  237.000     5.949     6.920     0.474     0.137     0.000  123337.6   733754.2
  237.500     5.979     6.932     0.474     0.137     0.000  124588.8   744918.8
  238.000     6.010     6.968     0.466     0.135     0.000  122947.5   738893.5
  238.500     6.044     6.984     0.466     0.135     0.000  124394.9   751819.8
  239.000     6.079     7.025     0.458     0.132     0.000  122888.5   747032.4
  239.500     6.117     7.046     0.458     0.132     0.000  124543.7   761880.6
  240.000     6.157     7.092     0.449     0.129     0.000  123164.1   758316.0
  240.500     6.200     7.118     0.449     0.129     0.000  125024.9   775132.9
  241.000     6.244     7.169     0.441     0.126     0.000  123753.3   772685.3
  241.500     6.291     7.199     0.441     0.126     0.000  125811.1   791467.6
  242.000     6.339     7.254     0.432     0.123     0.000  124624.4   789999.6
  242.500     6.390     7.289     0.432     0.123     0.000  126866.4   810719.7
  243.000     6.442     7.348     0.424     0.120     0.000  125734.2   810034.8
  243.500     6.497     7.387     0.424     0.120     0.000  128133.5   832545.5
  244.000     6.553     7.450     0.415     0.117     0.000  127003.1   832238.0
  244.500     6.611     7.491     0.415     0.117     0.000  129499.9   856077.3
  245.000     6.668     7.556     0.406     0.115     0.000  128279.4   855349.1
  245.500     6.726     7.597     0.406     0.115     0.000  130765.5   879569.1
  246.000     6.783     7.660     0.397     0.112     0.000  129368.5   877484.5
  246.500     6.839     7.699     0.397     0.112     0.000  131694.2   900658.2
  247.000     6.892     7.758     0.389     0.109     0.000  130598.7   900032.0
  247.500     6.942     7.793     0.389     0.109     0.000  132606.5   920529.1
  248.000     6.987     7.844     0.382     0.107     0.000  131430.5   918306.6
  248.500     7.029     7.871     0.382     0.107     0.000  133020.1   934951.1
  249.000     7.065     7.912     0.377     0.105     0.000  131783.3   931012.4
  249.500     7.097     7.932     0.377     0.105     0.000  132952.2   943563.1
  250.000     7.124     7.962     0.371     0.104     0.000  131589.1   937479.7
  250.500     7.149     7.974     0.371     0.104     0.000  132423.4   946632.5
  251.000     7.169     7.997     0.367     0.102     0.000  131198.5   940555.4
  251.500     7.187     8.006     0.367     0.102     0.000  131818.5   947438.0
  252.000     7.203     8.024     0.361     0.100     0.000  129757.5   934700.7
  252.500     7.219     8.025     0.361     0.100     0.000  130285.2   940537.7
  253.000     7.233     8.041     0.358     0.099     0.000  129247.0   934852.3
  253.500     7.247     8.046     0.358     0.099     0.000  129725.4   940078.2
  254.000     7.259     8.060     0.355     0.098     0.000  128656.3   933937.7
  254.500     7.272     8.065     0.355     0.098     0.000  129118.9   938917.1
  255.000     7.284     8.078     0.351     0.097     0.000  128100.3   933031.0
  255.500     7.296     8.083     0.351     0.097     0.000  128569.7   938038.0
  256.000     7.308     8.096     0.348     0.096     0.000  127560.9   932221.7
  256.500     7.321     8.101     0.348     0.096     0.000  128052.1   937467.6
  257.000     7.334     8.116     0.345     0.095     0.000  127072.7   931937.7
  257.500     7.348     8.122     0.345     0.095     0.000  127584.7   937452.8
  258.000     7.361     8.137     0.342     0.094     0.000  126569.9   931726.5
  258.500     7.376     8.144     0.342     0.094     0.000  127088.7   937374.5
  259.000     7.390     8.159     0.339     0.094     0.000  126466.6   934557.3
  259.500     7.404     8.168     0.339     0.094     0.000  126968.8   940075.3
  260.000     7.418     8.183     0.337     0.093     0.000  126296.4   936821.0
  260.500     7.431     8.191     0.337     0.093     0.000  126774.1   942106.2
  261.000     7.444     8.206     0.334     0.092     0.000  126131.8   938980.5
  261.500     7.457     8.214     0.334     0.092     0.000  126582.2   943983.0
  262.000     7.470     8.227     0.332     0.091     0.000  126027.4   941392.7
  262.500     7.482     8.235     0.332     0.091     0.000  126447.4   946060.3
  263.000     7.493     8.247     0.331     0.091     0.000  126275.2   946193.4
  263.500     7.504     8.255     0.331     0.091     0.000  126650.8   950363.8
  264.000     7.514     8.266     0.330     0.091     0.000  126519.0   950601.3
  264.500     7.522     8.273     0.330     0.091     0.000  126836.2   954113.0
  265.000     7.530     8.281     0.330     0.091     0.000  127068.7   956836.8
  265.500     7.536     8.288     0.330     0.091     0.000  127303.3   959415.0
  266.000     7.541     8.294     0.330     0.091     0.000  127472.6   961321.0
  266.500     7.545     8.297     0.330     0.091     0.000  127612.1   962814.8
  267.000     7.547     8.299     0.328     0.090     0.000  127048.5   958808.4
  267.500     7.548     8.296     0.328     0.090     0.000  127103.1   959324.7
  268.000     7.547     8.296     0.327     0.090     0.000  126438.7   954223.4
  268.500     7.545     8.290     0.327     0.090     0.000  126415.8   953837.0
  269.000     7.542     8.287     0.326     0.089     0.000  125659.3   947748.4
  269.500     7.538     8.278     0.326     0.089     0.000  125571.7   946609.1
  270.000     7.533     8.273     0.324     0.089     0.000  124841.7   940489.3
  270.500     7.528     8.263     0.324     0.089     0.000  124697.7   938706.3
  271.000     7.521     8.256     0.323     0.089     0.000  123986.3   932535.3
  271.500     7.514     8.245     0.323     0.089     0.000  123786.0   930135.2
  272.000     7.506     8.236     0.322     0.088     0.000  122954.3   922877.6
  272.500     7.497     8.223     0.322     0.088     0.000  122694.7   919845.9
  273.000     7.487     8.212     0.321     0.088     0.000  121973.2   913236.6
  273.500     7.477     8.198     0.321     0.088     0.000  121649.6   909529.5
  274.000     7.465     8.185     0.320     0.088     0.000  121031.5   903521.8
  274.500     7.453     8.170     0.320     0.088     0.000  120653.0   899243.5
  275.000     7.441     8.157     0.320     0.088     0.000  120138.2   893893.3
  275.500     7.428     8.142     0.320     0.088     0.000  119728.4   889307.3
  276.000     7.415     8.128     0.321     0.088     0.000  119745.4   887889.0
  276.500     7.402     8.116     0.321     0.088     0.000  119324.9   883224.2
  277.000     7.389     8.102     0.322     0.088     0.000  119343.7   881872.2
  277.500     7.377     8.092     0.322     0.088     0.000  118945.6   877496.1
  278.000     7.366     8.080     0.323     0.089     0.000  118979.6   876422.6
  278.500     7.356     8.071     0.323     0.089     0.000  118633.8   872659.8
  279.000     7.347     8.061     0.324     0.089     0.000  118987.1   874198.7
  279.500     7.339     8.056     0.324     0.089     0.000  118715.0   871273.4
  280.000     7.333     8.050     0.326     0.089     0.000  119057.4   873058.0
  280.500     7.328     8.048     0.326     0.089     0.000  118886.6   871254.9
  281.000     7.326     8.045     0.327     0.090     0.000  119244.7   873554.8
  281.500     7.325     8.047     0.327     0.090     0.000  119193.3   873051.8
  282.000     7.325     8.048     0.327     0.090     0.000  119494.0   875352.8
  282.500     7.328     8.052     0.327     0.090     0.000  119561.6   876131.6
  283.000     7.332     8.056     0.326     0.090     0.000  119238.4   874221.9
  283.500     7.337     8.059     0.326     0.090     0.000  119407.2   876083.9
  284.000     7.343     8.066     0.325     0.089     0.000  119014.8   873907.4
  284.500     7.349     8.069     0.325     0.089     0.000  119230.4   876259.5
  285.000     7.355     8.076     0.323     0.089     0.000  118670.1   872870.9
  285.500     7.361     8.078     0.323     0.089     0.000  118871.6   875051.4
  286.000     7.366     8.083     0.320     0.088     0.000  117567.2   866004.7
  286.500     7.370     8.079     0.320     0.088     0.000  117713.7   867574.5
  287.000     7.373     8.081     0.317     0.087     0.000  116384.2   858060.6
  287.500     7.374     8.074     0.317     0.087     0.000  116441.8   858658.3
  288.000     7.374     8.074     0.314     0.086     0.000  115001.5   847989.6
  288.500     7.372     8.064     0.314     0.086     0.000  114966.8   847583.2
  289.000     7.370     8.061     0.312     0.085     0.000  114116.7   840985.2
  289.500     7.366     8.052     0.312     0.085     0.000  114004.3   839738.3
  290.000     7.361     8.047     0.310     0.085     0.000  113179.2   833155.7
  290.500     7.357     8.038     0.310     0.085     0.000  113043.1   831665.6
  291.000     7.353     8.034     0.309     0.084     0.000  112370.1   826256.9
  291.500     7.350     8.027     0.309     0.084     0.000  112272.0   825197.7
  292.000     7.348     8.025     0.309     0.084     0.000  112230.0   824677.9
  292.500     7.348     8.025     0.309     0.084     0.000  112206.9   824452.0
  293.000     7.349     8.026     0.309     0.084     0.000  112310.2   825322.6
  293.500     7.351     8.029     0.309     0.084     0.000  112375.4   826068.5
  294.000     7.355     8.033     0.310     0.085     0.000  112666.7   828614.8
  294.500     7.359     8.039     0.310     0.085     0.000  112793.1   830035.0
  295.000     7.364     8.044     0.310     0.085     0.000  113204.5   833606.2
  295.500     7.368     8.051     0.310     0.085     0.000  113340.5   835133.7
  296.000     7.373     8.055     0.311     0.085     0.000  113919.6   839882.6
  296.500     7.376     8.062     0.311     0.085     0.000  114010.2   840912.2
  297.000     7.378     8.064     0.314     0.086     0.000  115120.4   849348.2
  297.500     7.378     8.071     0.314     0.086     0.000  115122.6   849404.9
  298.000     7.377     8.070     0.315     0.086     0.000  115797.0   854290.0
  298.500     7.375     8.072     0.315     0.086     0.000  115715.9   853429.3
  299.000     7.372     8.068     0.318     0.087     0.000  116947.5   862149.9
  299.500     7.368     8.071     0.318     0.087     0.000  116793.6   860487.0
  300.000     7.363     8.066     0.320     0.088     0.000  117145.1   862517.1
  300.500     7.358     8.064     0.320     0.088     0.000  116975.1   860676.1
  301.000     7.353     8.059     0.324     0.089     0.000  118964.2   874756.9
  301.500     7.348     8.066     0.324     0.089     0.000  118784.8   872808.1
  302.000     7.344     8.061     0.327     0.090     0.000  120033.8   881476.7
  302.500     7.340     8.065     0.327     0.090     0.000  119904.7   880076.7
  303.000     7.338     8.063     0.331     0.091     0.000  121291.2   889995.7
  303.500     7.337     8.071     0.331     0.091     0.000  121247.2   889530.2
  304.000     7.337     8.072     0.334     0.092     0.000  122719.3   900443.0
  304.500     7.340     8.083     0.334     0.092     0.000  122788.4   901226.2
  305.000     7.344     8.088     0.337     0.093     0.000  124413.3   913724.8
  305.500     7.350     8.103     0.337     0.093     0.000  124610.0   915920.3
  306.000     7.359     8.113     0.340     0.094     0.000  126325.0   929579.7
  306.500     7.368     8.132     0.340     0.094     0.000  126646.2   933154.5
  307.000     7.380     8.145     0.344     0.095     0.000  128513.1   948380.6
  307.500     7.392     8.167     0.344     0.095     0.000  128930.1   953007.4
  308.000     7.405     8.181     0.346     0.096     0.000  130665.2   967545.6
  308.500     7.418     8.203     0.346     0.096     0.000  131130.2   972678.5
  309.000     7.431     8.217     0.349     0.097     0.000  132850.5   987161.9
  309.500     7.442     8.238     0.349     0.097     0.000  133296.1   992040.0
  310.000     7.453     8.250     0.351     0.097     0.000  134545.3  1002799.1
  310.500     7.462     8.265     0.351     0.097     0.000  134907.9  1006716.1
  311.000     7.470     8.273     0.353     0.098     0.000  136352.1  1018488.9
  311.500     7.474     8.285     0.353     0.098     0.000  136561.3  1020673.9
  312.000     7.476     8.287     0.355     0.098     0.000  137660.6  1029209.8
  312.500     7.476     8.292     0.355     0.098     0.000  137676.4  1029235.1
  313.000     7.473     8.289     0.357     0.099     0.000  138542.7  1035279.0
  313.500     7.467     8.288     0.357     0.099     0.000  138350.2  1032992.7
  314.000     7.458     8.278     0.359     0.100     0.000  139242.0  1038480.2
  314.500     7.447     8.273     0.359     0.100     0.000  138850.2  1034001.7
  315.000     7.434     8.258     0.362     0.101     0.000  139469.6  1036807.3
  315.500     7.419     8.248     0.362     0.101     0.000  138925.6  1030681.1
  316.000     7.403     8.231     0.364     0.101     0.000  139355.4  1031656.2
  316.500     7.386     8.218     0.364     0.101     0.000  138729.8  1024683.7
  317.000     7.370     8.199     0.366     0.102     0.000  139019.0  1024502.5
  317.500     7.353     8.186     0.366     0.102     0.000  138399.0  1017658.6
  318.000     7.338     8.170     0.367     0.102     0.000  138611.9  1017142.0
  318.500     7.325     8.159     0.367     0.102     0.000  138089.9  1011445.5
  319.000     7.314     8.147     0.369     0.103     0.000  138293.8  1011420.5
  319.500     7.305     8.142     0.369     0.103     0.000  137952.6  1007767.6
  320.000     7.300     8.136     0.370     0.103     0.000  138168.1  1008644.6
  320.500     7.298     8.137     0.370     0.103     0.000  138064.6  1007643.4
  321.000     7.300     8.139     0.370     0.103     0.000  138397.9  1010329.3
  321.500     7.305     8.146     0.370     0.103     0.000  138549.1  1012149.3
  322.000     7.314     8.156     0.371     0.103     0.000  138913.2  1015989.0
  322.500     7.325     8.169     0.371     0.103     0.000  139300.9  1020419.8
  323.000     7.339     8.185     0.370     0.103     0.000  139710.1  1025388.2
  323.500     7.356     8.203     0.370     0.103     0.000  140293.1  1031973.3
  324.000     7.374     8.223     0.370     0.103     0.000  140568.0  1036578.2
  324.500     7.394     8.243     0.370     0.103     0.000  141307.0  1044890.7
  325.000     7.416     8.268     0.368     0.103     0.000  141600.8  1050132.2
  325.500     7.439     8.290     0.368     0.103     0.000  142464.9  1059849.9
  326.000     7.464     8.318     0.367     0.102     0.000  142784.6  1065703.1
  326.500     7.489     8.343     0.367     0.102     0.000  143752.9  1076623.5
  327.000     7.516     8.372     0.366     0.102     0.000  144149.4  1083418.9
  327.500     7.544     8.399     0.366     0.102     0.000  145198.8  1095314.2
  328.000     7.572     8.431     0.365     0.101     0.000  145543.2  1101997.6
  328.500     7.600     8.458     0.365     0.101     0.000  146642.6  1114537.5
  329.000     7.629     8.490     0.363     0.101     0.000  147144.0  1122567.0
  329.500     7.658     8.519     0.363     0.101     0.000  148248.8  1135245.9
  330.000     7.686     8.550     0.363     0.101     0.000  148994.1  1145120.7
  330.500     7.713     8.578     0.363     0.101     0.000  150055.3  1157357.0
  331.000     7.739     8.607     0.363     0.101     0.000  151280.7  1170730.8
  331.500     7.763     8.635     0.363     0.101     0.000  152248.5  1181920.9
  332.000     7.786     8.660     0.364     0.101     0.000  153709.6  1196743.1
  332.500     7.806     8.686     0.364     0.101     0.000  154546.5  1206426.8
  333.000     7.825     8.707     0.366     0.102     0.000  156212.1  1222338.8
  333.500     7.841     8.730     0.366     0.102     0.000  156889.3  1230171.4
  334.000     7.855     8.746     0.367     0.102     0.000  158296.0  1243453.9
  334.500     7.867     8.764     0.367     0.102     0.000  158799.3  1249279.7
  335.000     7.877     8.774     0.369     0.103     0.000  160394.5  1263406.9
  335.500     7.884     8.789     0.369     0.103     0.000  160699.8  1266952.9
  336.000     7.889     8.795     0.372     0.104     0.000  162337.4  1280683.7
  336.500     7.891     8.805     0.372     0.104     0.000  162422.2  1281681.4
  337.000     7.891     8.805     0.375     0.105     0.000  163752.4  1292146.5
  337.500     7.888     8.809     0.375     0.105     0.000  163606.1  1290447.3
  338.000     7.882     8.802     0.377     0.105     0.000  164967.6  1300249.5
  338.500     7.873     8.801     0.377     0.105     0.000  164581.9  1295721.2
  339.000     7.861     8.789     0.381     0.106     0.000  165820.8  1303598.9
  339.500     7.847     8.782     0.381     0.106     0.000  165211.2  1296406.3
  340.000     7.831     8.764     0.384     0.108     0.000  166411.1  1303091.2
  340.500     7.811     8.753     0.384     0.108     0.000  165613.3  1293667.1
  341.000     7.791     8.730     0.387     0.109     0.000  166691.4  1298691.5
  341.500     7.769     8.716     0.387     0.109     0.000  165760.8  1287729.0
  342.000     7.746     8.690     0.392     0.110     0.000  167068.2  1294081.2
  342.500     7.722     8.676     0.392     0.110     0.000  166054.7  1282214.5
  343.000     7.698     8.649     0.396     0.111     0.000  167345.3  1288198.1
  343.500     7.673     8.635     0.396     0.111     0.000  166303.9  1276101.3
  344.000     7.650     8.608     0.400     0.113     0.000  167548.8  1281710.4
  344.500     7.626     8.595     0.400     0.113     0.000  166530.0  1269969.3
  345.000     7.604     8.569     0.404     0.114     0.000  167770.2  1275697.9
  345.500     7.582     8.558     0.404     0.114     0.000  166818.0  1264796.7
  346.000     7.562     8.535     0.408     0.115     0.000  168065.3  1270875.9
  346.500     7.542     8.525     0.408     0.115     0.000  167213.3  1261177.6
  347.000     7.525     8.505     0.411     0.116     0.000  168224.8  1265870.3
  347.500     7.508     8.497     0.411     0.116     0.000  167493.8  1257592.2
  348.000     7.494     8.481     0.414     0.117     0.000  168399.3  1261913.8
  348.500     7.480     8.474     0.414     0.117     0.000  167774.7  1254880.9
  349.000     7.467     8.460     0.416     0.118     0.000  168161.3  1255650.0
  349.500     7.455     8.451     0.416     0.118     0.000  167613.9  1249529.0
  350.000     7.443     8.439     0.418     0.118     0.000  167878.0  1249586.4
  350.500     7.432     8.430     0.418     0.118     0.000  167355.1  1243781.7
  351.000     7.421     8.417     0.419     0.119     0.000  167450.1  1242605.5
  351.500     7.409     8.408     0.419     0.119     0.000  166910.9  1236662.7
  352.000     7.397     8.395     0.420     0.119     0.000  166989.4  1235281.1
  352.500     7.385     8.384     0.420     0.119     0.000  166411.9  1228957.0
  353.000     7.373     8.370     0.421     0.120     0.000  166473.0  1227325.4
  353.500     7.359     8.359     0.421     0.120     0.000  165859.4  1220637.3
  354.000     7.346     8.344     0.422     0.120     0.000  165886.0  1218659.4
  354.500     7.333     8.333     0.422     0.120     0.000  165254.3  1211790.5
  355.000     7.320     8.318     0.424     0.120     0.000  165392.1  1210590.4
  355.500     7.306     8.307     0.424     0.120     0.000  164760.0  1203717.2
  356.000     7.293     8.292     0.425     0.121     0.000  164818.6  1201945.6
  356.500     7.279     8.280     0.425     0.121     0.000  164205.8  1195272.1
  357.000     7.266     8.266     0.426     0.121     0.000  164242.5  1193397.3
  357.500     7.253     8.255     0.426     0.121     0.000  163656.4  1187004.7
  358.000     7.240     8.240     0.427     0.121     0.000  163333.9  1182597.7
  358.500     7.228     8.227     0.427     0.121     0.000  162778.0  1176537.3
  359.000     7.216     8.213     0.428     0.122     0.000  162536.0  1172789.5
  359.500     7.203     8.201     0.428     0.122     0.000  161984.2  1166796.7
  360.000     7.191     8.187     0.429     0.122     0.000  161937.4  1164436.7
  360.500     7.178     8.175     0.429     0.122     0.000  161350.5  1158110.1
  361.000     7.164     8.160     0.430     0.122     0.000  161272.1  1155379.2
  361.500     7.150     8.147     0.430     0.122     0.000  160618.6  1148399.6
  362.000     7.135     8.130     0.431     0.123     0.000  160652.8  1146244.2
  362.500     7.119     8.116     0.431     0.123     0.000  159906.8  1138350.3
  363.000     7.102     8.097     0.433     0.123     0.000  159928.1  1135818.9
  363.500     7.084     8.081     0.433     0.123     0.000  159085.7  1126982.4
  364.000     7.066     8.060     0.435     0.124     0.000  159153.9  1124519.8
  364.500     7.046     8.044     0.435     0.124     0.000  158228.7  1114891.3
  365.000     7.026     8.021     0.437     0.125     0.000  158368.8  1112739.6
  365.500     7.006     8.005     0.437     0.125     0.000  157388.1  1102605.6
  366.000     6.985     7.981     0.439     0.126     0.000  157494.9  1100119.6
  366.500     6.964     7.964     0.439     0.126     0.000  156494.7  1089848.1
  367.000     6.944     7.940     0.441     0.126     0.000  156560.3  1087078.0
  367.500     6.923     7.923     0.441     0.126     0.000  155571.2  1076974.9
  368.000     6.902     7.900     0.443     0.127     0.000  155560.3  1073750.3
  368.500     6.882     7.883     0.443     0.127     0.000  154601.4  1063999.4
  369.000     6.863     7.861     0.445     0.127     0.000  154414.3  1059672.5
  369.500     6.843     7.843     0.445     0.127     0.000  153493.0  1050339.8
  370.000     6.824     7.821     0.446     0.128     0.000  153058.2  1044436.3
  370.500     6.805     7.802     0.446     0.128     0.000  152170.9  1035484.1
  371.000     6.786     7.781     0.446     0.128     0.000  151515.3  1028182.2
  371.500     6.767     7.761     0.446     0.128     0.000  150649.9  1019491.6
  372.000     6.749     7.739     0.446     0.128     0.000  149822.8  1011103.8
  372.500     6.730     7.718     0.446     0.128     0.000  148965.8  1002541.6
  373.000     6.711     7.697     0.446     0.128     0.000  147971.3   993078.0
  373.500     6.693     7.674     0.446     0.128     0.000  147116.2   984582.9
  374.000     6.674     7.653     0.446     0.128     0.000  145980.1   974229.4
  374.500     6.655     7.629     0.446     0.128     0.000  145131.5   965848.9
  375.000     6.636     7.608     0.445     0.127     0.000  143957.0   955338.7
  375.500     6.618     7.584     0.445     0.127     0.000  143128.7   947210.8
  376.000     6.600     7.564     0.445     0.127     0.000  142256.0   938856.9
  376.500     6.582     7.543     0.445     0.127     0.000  141460.5   931107.4
  377.000     6.565     7.524     0.443     0.127     0.000  139959.2   918835.6
  377.500     6.549     7.500     0.443     0.127     0.000  139244.2   911934.4
  378.000     6.534     7.483     0.442     0.126     0.000  138043.7   902006.0
  378.500     6.521     7.464     0.442     0.126     0.000  137420.8   896062.3
  379.000     6.508     7.450     0.441     0.126     0.000  136476.8   888193.9
  379.500     6.497     7.434     0.441     0.126     0.000  135950.2   883244.6
  380.000     6.487     7.423     0.440     0.126     0.000  135184.7   876910.2
  380.500     6.478     7.411     0.440     0.126     0.000  134748.9   872896.6
  381.000     6.470     7.402     0.440     0.126     0.000  134208.7   868348.4
  381.500     6.463     7.393     0.440     0.126     0.000  133843.7   865069.7
  382.000     6.457     7.386     0.441     0.126     0.000  133789.1   863894.6
  382.500     6.451     7.381     0.441     0.126     0.000  133456.6   860971.9
  383.000     6.446     7.375     0.439     0.126     0.000  132609.8   854782.2
  383.500     6.441     7.366     0.439     0.126     0.000  132302.9   852140.0
  384.000     6.436     7.360     0.439     0.126     0.000  132104.5   850184.5
  384.500     6.430     7.354     0.439     0.126     0.000  131772.4   847319.8
  385.000     6.424     7.348     0.440     0.126     0.000  131484.1   844679.0
  385.500     6.418     7.340     0.440     0.126     0.000  131106.5   841385.2
  386.000     6.410     7.332     0.440     0.126     0.000  130771.5   838280.2
  386.500     6.402     7.323     0.440     0.126     0.000  130340.4   834466.4
  387.000     6.393     7.313     0.441     0.126     0.000  130391.0   833646.7
  387.500     6.384     7.306     0.441     0.126     0.000  129898.2   829223.6
  388.000     6.373     7.294     0.442     0.127     0.000  129922.1   828024.9
  388.500     6.362     7.285     0.442     0.127     0.000  129381.6   823117.1
  389.000     6.350     7.271     0.444     0.127     0.000  129425.8   821875.7
  389.500     6.338     7.261     0.444     0.127     0.000  128852.4   816613.3
  390.000     6.325     7.246     0.446     0.128     0.000  128979.5   815752.8
  390.500     6.311     7.235     0.446     0.128     0.000  128383.5   810222.5
  391.000     6.297     7.219     0.448     0.128     0.000  128508.2   809214.7
  391.500     6.282     7.208     0.448     0.128     0.000  127899.6   803503.4
  392.000     6.267     7.191     0.450     0.129     0.000  128049.5   802542.9
  392.500     6.252     7.178     0.450     0.129     0.000  127435.7   796720.7
  393.000     6.236     7.161     0.451     0.130     0.000  127499.2   795136.3
  393.500     6.220     7.147     0.451     0.130     0.000  126891.6   789319.6
  394.000     6.205     7.129     0.453     0.130     0.000  126902.4   787376.0
  394.500     6.189     7.115     0.453     0.130     0.000  126312.5   781687.6
  395.000     6.173     7.097     0.454     0.131     0.000  126219.7   779128.6
  395.500     6.157     7.082     0.454     0.131     0.000  125662.0   773720.1
  396.000     6.142     7.065     0.455     0.131     0.000  125441.3   770464.7
  396.500     6.127     7.050     0.455     0.131     0.000  124930.0   765483.2
  397.000     6.113     7.034     0.455     0.131     0.000  124471.7   760922.4
  397.500     6.100     7.019     0.455     0.131     0.000  124019.6   756494.3
  398.000     6.087     7.004     0.455     0.131     0.000  123485.3   751661.5
  398.500     6.075     6.989     0.455     0.131     0.000  123090.1   747774.3
  399.000     6.064     6.976     0.454     0.131     0.000  122439.8   742418.0
  399.500     6.053     6.962     0.454     0.131     0.000  122092.3   738990.6
  400.000     6.042     6.950     0.453     0.130     0.000  121349.9   733230.8
  400.500     6.032     6.935     0.453     0.130     0.000  121038.2   730155.5
  401.000     6.023     6.924     0.450     0.129     0.000  119835.7   721753.5
  401.500     6.014     6.908     0.450     0.129     0.000  119566.7   719093.3
  402.000     6.006     6.898     0.448     0.128     0.000  118423.9   711228.4
  402.500     5.998     6.883     0.448     0.128     0.000  118204.8   709047.9
  403.000     5.992     6.875     0.445     0.128     0.000  117016.0   701136.3
  403.500     5.987     6.862     0.445     0.128     0.000  116874.5   699691.8
  404.000     5.983     6.857     0.444     0.127     0.000  116543.7   697252.1
  404.500     5.980     6.853     0.444     0.127     0.000  116490.1   696658.3
  405.000     5.980     6.852     0.441     0.126     0.000  115111.6   688337.7
  405.500     5.982     6.844     0.441     0.126     0.000  115193.2   689059.7
  406.000     5.986     6.849     0.439     0.125     0.000  114759.3   686895.1
  406.500     5.991     6.851     0.439     0.125     0.000  114936.0   688602.3
  407.000     5.998     6.859     0.437     0.125     0.000  114540.5   687012.7
  407.500     6.006     6.863     0.437     0.125     0.000  114760.2   689234.9
  408.000     6.014     6.872     0.436     0.124     0.000  114396.7   687964.9
  408.500     6.022     6.877     0.436     0.124     0.000  114588.1   690020.6
  409.000     6.029     6.885     0.434     0.124     0.000  114286.0   688986.3
  409.500     6.034     6.888     0.434     0.124     0.000  114384.6   690235.4
  410.000     6.038     6.893     0.433     0.123     0.000  113909.9   687816.6
  410.500     6.040     6.891     0.433     0.123     0.000  113881.5   687897.8
  411.000     6.040     6.891     0.432     0.123     0.000  113628.3   686367.6
  411.500     6.038     6.888     0.432     0.123     0.000  113448.9   685029.5
  412.000     6.034     6.882     0.432     0.123     0.000  112935.4   681402.0
  412.500     6.027     6.872     0.432     0.123     0.000  112602.7   678606.6
  413.000     6.017     6.861     0.432     0.123     0.000  112161.8   674870.5
  413.500     6.005     6.847     0.432     0.123     0.000  111662.3   670490.2
  414.000     5.990     6.830     0.431     0.123     0.000  111000.6   664841.8
  414.500     5.972     6.809     0.431     0.123     0.000  110331.8   658867.8
  415.000     5.951     6.786     0.431     0.123     0.000  109517.6   651745.3
  415.500     5.928     6.759     0.431     0.123     0.000  108685.0   644257.6
  416.000     5.902     6.729     0.431     0.123     0.000  107755.3   635960.2
  416.500     5.874     6.697     0.431     0.123     0.000  106780.2   627198.4
  417.000     5.844     6.662     0.432     0.123     0.000  105986.0   619336.0
  417.500     5.812     6.628     0.432     0.123     0.000  104901.0   609642.6
  418.000     5.778     6.590     0.433     0.123     0.000  104080.5   601425.0
  418.500     5.744     6.553     0.433     0.123     0.000  102940.4   591333.2
  419.000     5.710     6.514     0.434     0.124     0.000  102128.3   583176.1
  419.500     5.676     6.478     0.434     0.124     0.000  100996.1   573272.0
  420.000     5.643     6.440     0.435     0.124     0.000  100208.6   565481.9
  420.500     5.611     6.406     0.435     0.124     0.000   99149.7   556344.3
  421.000     5.581     6.372     0.436     0.125     0.000   98491.1   549701.0
  421.500     5.554     6.343     0.436     0.125     0.000   97564.2   541823.1
  422.000     5.529     6.315     0.437     0.125     0.000   97054.6   536580.9
  422.500     5.507     6.293     0.437     0.125     0.000   96309.6   530358.8
  423.000     5.489     6.272     0.438     0.125     0.000   95901.5   526355.4
  423.500     5.474     6.257     0.438     0.125     0.000   95376.0   522066.3
  424.000     5.463     6.244     0.439     0.126     0.000   95316.7   520705.8
  424.500     5.456     6.239     0.439     0.126     0.000   95025.0   518426.6
  425.000     5.452     6.235     0.441     0.126     0.000   95320.6   519719.6
  425.500     5.452     6.239     0.441     0.126     0.000   95262.6   519410.9
  426.000     5.456     6.243     0.442     0.127     0.000   95767.2   522514.7
  426.500     5.463     6.255     0.442     0.127     0.000   95936.6   524090.1
  427.000     5.473     6.266     0.444     0.127     0.000   96800.8   529779.1
  427.500     5.485     6.285     0.444     0.127     0.000   97185.0   533107.9
  428.000     5.501     6.303     0.446     0.128     0.000   98200.2   540195.9
  428.500     5.519     6.328     0.446     0.128     0.000   98796.3   545236.6
  429.000     5.539     6.351     0.448     0.128     0.000   99990.3   553872.1
  429.500     5.562     6.381     0.448     0.128     0.000  100801.0   560647.2
  430.000     5.587     6.410     0.449     0.129     0.000  102148.3   570709.8
  430.500     5.614     6.445     0.449     0.129     0.000  103178.5   579280.5
  431.000     5.644     6.479     0.450     0.129     0.000  104586.6   590284.2
  431.500     5.676     6.517     0.450     0.129     0.000  105833.4   600669.7
  432.000     5.709     6.556     0.450     0.129     0.000  107290.3   612548.7
  432.500     5.745     6.597     0.450     0.129     0.000  108729.1   624603.8
  433.000     5.781     6.639     0.450     0.129     0.000  110192.8   637059.7
  433.500     5.819     6.682     0.450     0.129     0.000  111769.5   650394.6
  434.000     5.857     6.726     0.449     0.129     0.000  112935.3   661499.7
  434.500     5.896     6.767     0.449     0.129     0.000  114569.1   675485.8
  435.000     5.934     6.811     0.447     0.128     0.000  115552.7   685670.0
  435.500     5.971     6.849     0.447     0.128     0.000  117139.1   699437.0
  436.000     6.006     6.889     0.444     0.127     0.000  117673.5   706785.4
  436.500     6.040     6.920     0.444     0.127     0.000  119103.3   719367.0
  437.000     6.070     6.955     0.441     0.126     0.000  119221.5   723715.4
  437.500     6.098     6.978     0.441     0.126     0.000  120395.0   734169.3
  438.000     6.122     7.005     0.437     0.125     0.000  120129.1   735383.7
  438.500     6.142     7.019     0.437     0.125     0.000  120975.8   742989.2
  439.000     6.157     7.036     0.434     0.124     0.000  120457.0   741660.1
  439.500     6.169     7.041     0.434     0.124     0.000  120951.0   746098.6
  440.000     6.176     7.049     0.431     0.123     0.000  120120.4   741824.8
  440.500     6.179     7.045     0.431     0.123     0.000  120293.1   743332.5
  441.000     6.179     7.045     0.429     0.122     0.000  119539.2   738678.6
  441.500     6.177     7.037     0.429     0.122     0.000  119464.5   737924.0
  442.000     6.172     7.031     0.427     0.122     0.000  118603.7   732048.7
  442.500     6.166     7.020     0.427     0.122     0.000  118395.0   730082.9
  443.000     6.160     7.012     0.425     0.121     0.000  117431.2   723387.7
  443.500     6.154     7.001     0.425     0.121     0.000  117208.8   721326.4
  444.000     6.149     6.995     0.423     0.120     0.000  116364.7   715521.9
  444.500     6.145     6.986     0.423     0.120     0.000  116217.1   714180.5
  445.000     6.143     6.983     0.421     0.120     0.000  115429.4   709066.4
  445.500     6.142     6.977     0.421     0.120     0.000  115396.8   708804.5
  446.000     6.143     6.978     0.419     0.119     0.000  114690.3   704552.0
  446.500     6.145     6.976     0.419     0.119     0.000  114760.3   705237.6
  447.000     6.148     6.979     0.417     0.118     0.000  114135.8   701734.4
  447.500     6.152     6.978     0.417     0.118     0.000  114267.9   702975.7
  448.000     6.156     6.982     0.415     0.118     0.000  113608.1   699356.7
  448.500     6.160     6.981     0.415     0.118     0.000  113770.9   700851.7
  449.000     6.164     6.986     0.413     0.117     0.000  113199.8   697817.6
  449.500     6.169     6.986     0.413     0.117     0.000  113389.1   699529.5
  450.000     6.174     6.992     0.411     0.116     0.000  112953.0   697415.2
  450.500     6.180     6.995     0.411     0.116     0.000  113196.7   699611.5
  451.000     6.188     7.003     0.410     0.116     0.000  112987.8   699119.7
  451.500     6.196     7.009     0.410     0.116     0.000  113330.1   702224.9
  452.000     6.207     7.021     0.409     0.116     0.000  113325.6   703371.8
  452.500     6.219     7.032     0.409     0.116     0.000  113809.4   707800.5
  453.000     6.234     7.048     0.408     0.115     0.000  114058.6   711017.2
  453.500     6.251     7.065     0.408     0.115     0.000  114707.4   717008.7
  454.000     6.270     7.087     0.407     0.115     0.000  115084.5   721565.9
  454.500     6.291     7.109     0.407     0.115     0.000  115897.3   729137.4
  455.000     6.314     7.135     0.406     0.115     0.000  116365.0   734777.6
  455.500     6.339     7.160     0.406     0.115     0.000  117313.8   743698.9
  456.000     6.366     7.190     0.405     0.114     0.000  117868.0   750297.2
  456.500     6.393     7.217     0.405     0.114     0.000  118902.4   760121.1
  457.000     6.420     7.248     0.403     0.114     0.000  119293.4   765913.5
  457.500     6.448     7.275     0.403     0.114     0.000  120351.4   776065.2
  458.000     6.476     7.306     0.401     0.113     0.000  120535.5   780546.2
  458.500     6.502     7.331     0.401     0.113     0.000  121549.5   790371.3
  459.000     6.528     7.359     0.398     0.112     0.000  121508.3   793178.5
  459.500     6.552     7.379     0.398     0.112     0.000  122416.0   802046.1
  460.000     6.574     7.404     0.396     0.111     0.000  122240.9   803564.3
  460.500     6.594     7.420     0.396     0.111     0.000  122994.8   810973.3
  461.000     6.611     7.439     0.393     0.111     0.000  122655.1   810857.1
  461.500     6.626     7.450     0.393     0.111     0.000  123234.6   816569.7
  462.000     6.639     7.464     0.391     0.110     0.000  122881.2   815785.4
  462.500     6.650     7.470     0.391     0.110     0.000  123294.2   819858.5
  463.000     6.658     7.480     0.390     0.109     0.000  122963.5   818726.7
  463.500     6.666     7.484     0.390     0.109     0.000  123246.1   821514.6
  464.000     6.672     7.491     0.388     0.109     0.000  122998.8   820607.2
  464.500     6.677     7.494     0.388     0.109     0.000  123204.7   822650.5
  465.000     6.682     7.499     0.388     0.109     0.000  123069.8   822361.6
  465.500     6.687     7.503     0.388     0.109     0.000  123255.1   824227.2
  466.000     6.692     7.509     0.388     0.109     0.000  123449.2   826181.8
  466.500     6.698     7.515     0.388     0.109     0.000  123652.0   828251.8
  467.000     6.705     7.522     0.388     0.109     0.000  123930.0   830897.9
  467.500     6.711     7.530     0.388     0.109     0.000  124169.5   833356.4
  468.000     6.719     7.539     0.388     0.109     0.000  124567.3   836943.7
  468.500     6.726     7.548     0.388     0.109     0.000  124834.7   839690.7
  469.000     6.734     7.557     0.388     0.109     0.000  125262.2   843535.6
  469.500     6.742     7.566     0.388     0.109     0.000  125531.5   846295.4
  470.000     6.749     7.574     0.389     0.109     0.000  126017.4   850480.7
  470.500     6.755     7.583     0.389     0.109     0.000  126256.3   852921.8
  471.000     6.761     7.590     0.389     0.109     0.000  126557.5   855706.5
  471.500     6.767     7.596     0.389     0.109     0.000  126747.5   857647.1
  472.000     6.771     7.601     0.390     0.109     0.000  127122.7   860754.7
  472.500     6.775     7.607     0.390     0.109     0.000  127256.8   862136.9
  473.000     6.778     7.611     0.391     0.110     0.000  127734.0   865783.3
  473.500     6.781     7.616     0.391     0.110     0.000  127822.8   866732.2
  474.000     6.783     7.619     0.392     0.110     0.000  128429.1   871178.7
  474.500     6.786     7.625     0.392     0.110     0.000  128496.1   871941.2
  475.000     6.788     7.628     0.394     0.111     0.000  129279.2   877606.3
  475.500     6.791     7.636     0.394     0.111     0.000  129351.7   878456.9
  476.000     6.795     7.640     0.396     0.111     0.000  130308.6   885400.8
  476.500     6.798     7.649     0.396     0.111     0.000  130412.2   886580.3
  477.000     6.803     7.654     0.398     0.112     0.000  131487.6   894482.2
  477.500     6.808     7.666     0.398     0.112     0.000  131642.7   896170.9
  478.000     6.813     7.672     0.400     0.113     0.000  132785.5   904713.0
  478.500     6.819     7.685     0.400     0.113     0.000  133004.6   907015.0
  479.000     6.826     7.693     0.402     0.113     0.000  134134.5   915658.3
  479.500     6.834     7.707     0.402     0.113     0.000  134420.5   918595.7
  480.000     6.842     7.716     0.404     0.114     0.000  135479.8   926934.8
  480.500     6.850     7.731     0.404     0.114     0.000  135824.0   930426.4
  481.000     6.859     7.741     0.405     0.114     0.000  136793.6   938293.1
  481.500     6.868     7.755     0.405     0.114     0.000  137174.3   942140.8
  482.000     6.877     7.765     0.406     0.115     0.000  137925.3   948578.7
  482.500     6.887     7.778     0.406     0.115     0.000  138313.7   952514.9
  483.000     6.896     7.788     0.406     0.115     0.000  138797.5   957102.1
  483.500     6.904     7.799     0.406     0.115     0.000  139161.0   960817.7
  484.000     6.913     7.808     0.406     0.115     0.000  139395.4   963579.3
  484.500     6.920     7.816     0.406     0.115     0.000  139701.4   966756.4
  485.000     6.927     7.823     0.405     0.114     0.000  139736.9   967944.2
  485.500     6.933     7.829     0.405     0.114     0.000  139954.8   970271.9
  486.000     6.937     7.834     0.405     0.114     0.000  139795.0   969809.9
  486.500     6.941     7.836     0.405     0.114     0.000  139897.3   970996.9
  487.000     6.943     7.838     0.404     0.114     0.000  139685.3   969777.2
  487.500     6.943     7.836     0.404     0.114     0.000  139645.0   969521.5
  488.000     6.941     7.834     0.404     0.114     0.000  139423.0   967730.5
  488.500     6.937     7.829     0.404     0.114     0.000  139218.9   965779.0
  489.000     6.931     7.822     0.404     0.114     0.000  139017.2   963535.6
  489.500     6.923     7.813     0.404     0.114     0.000  138639.7   959752.2
  490.000     6.912     7.801     0.405     0.114     0.000  138637.7   958255.7
  490.500     6.899     7.789     0.405     0.114     0.000  138091.9   952669.0
  491.000     6.884     7.772     0.406     0.115     0.000  138087.9   950562.4
  491.500     6.867     7.757     0.406     0.115     0.000  137410.2   943558.3
  492.000     6.849     7.737     0.408     0.115     0.000  137486.2   941582.8
  492.500     6.829     7.720     0.408     0.115     0.000  136730.9   933765.5
  493.000     6.810     7.698     0.410     0.116     0.000  136907.9   932298.9
  493.500     6.790     7.681     0.410     0.116     0.000  136131.3   924300.2
  494.000     6.770     7.659     0.413     0.117     0.000  136463.1   923909.8
  494.500     6.751     7.645     0.413     0.117     0.000  135704.0   916154.5
  495.000     6.733     7.624     0.416     0.118     0.000  136248.6   917326.8
  495.500     6.714     7.612     0.416     0.118     0.000  135518.7   909939.7
  496.000     6.697     7.592     0.419     0.119     0.000  136141.3   911756.4
  496.500     6.680     7.581     0.419     0.119     0.000  135436.9   904685.3
  497.000     6.663     7.562     0.422     0.120     0.000  136091.1   906788.7
  497.500     6.646     7.552     0.422     0.120     0.000  135401.8   899914.8
  498.000     6.630     7.533     0.425     0.121     0.000  136021.6   901822.4
  498.500     6.613     7.523     0.425     0.121     0.000  135343.0   895090.5
  499.000     6.598     7.505     0.427     0.122     0.000  135598.6   894623.4
  499.500     6.582     7.493     0.427     0.122     0.000  134944.9   888170.2
  500.000     6.567     7.476     0.429     0.122     0.000  135114.0   887230.8
  500.500     6.552     7.464     0.429     0.122     0.000  134496.8   881168.0
  501.000     6.537     7.448     0.425     0.121     0.000  132004.5   862971.4
  501.500     6.525     7.421     0.425     0.121     0.000  131507.0   858115.0
  502.000     6.514     7.408     0.426     0.121     0.000  131391.5   855847.6
  502.500     6.503     7.398     0.426     0.121     0.000  130933.3   851405.3
  503.000     6.492     7.386     0.426     0.121     0.000  130538.3   847449.0
  503.500     6.482     7.374     0.426     0.121     0.000  130109.6   843324.6
  504.000     6.472     7.363     0.425     0.121     0.000  129582.9   838597.9
  504.500     6.461     7.351     0.425     0.121     0.000  129160.7   834562.4
  505.000     6.451     7.339     0.425     0.121     0.000  128732.8   830469.6
  505.500     6.440     7.327     0.425     0.121     0.000  128285.1   826205.3
  506.000     6.429     7.314     0.425     0.121     0.000  127854.8   821988.1
  506.500     6.417     7.301     0.425     0.121     0.000  127360.6   817280.7
  507.000     6.404     7.286     0.426     0.121     0.000  126983.8   813244.3
  507.500     6.391     7.272     0.426     0.121     0.000  126436.0   808021.1
  508.000     6.377     7.255     0.426     0.121     0.000  126024.9   803603.2
  508.500     6.362     7.240     0.426     0.121     0.000  125437.7   797999.8
  509.000     6.347     7.222     0.427     0.121     0.000  125044.6   793604.9
  509.500     6.331     7.206     0.427     0.121     0.000  124445.0   787882.4
  510.000     6.316     7.189     0.427     0.122     0.000  124048.9   783476.5
  510.500     6.301     7.173     0.427     0.122     0.000  123471.3   777965.6
  511.000     6.286     7.157     0.427     0.122     0.000  123006.8   773251.9
  511.500     6.272     7.141     0.427     0.122     0.000  122486.8   768291.1
  512.000     6.260     7.127     0.427     0.122     0.000  121992.5   763622.1
  512.500     6.248     7.113     0.427     0.122     0.000  121558.9   759483.0
  513.000     6.237     7.101     0.427     0.122     0.000  121039.6   754974.8
  513.500     6.228     7.090     0.427     0.122     0.000  120714.0   751863.8
  514.000     6.221     7.082     0.427     0.121     0.000  120368.9   748821.2
  514.500     6.215     7.075     0.427     0.121     0.000  120162.1   746844.0
  515.000     6.211     7.070     0.426     0.121     0.000  119820.6   744238.1
  515.500     6.209     7.066     0.426     0.121     0.000  119743.6   743506.6
  516.000     6.209     7.066     0.426     0.121     0.000  119463.8   741736.3
  516.500     6.211     7.066     0.426     0.121     0.000  119519.5   742291.4
  517.000     6.214     7.070     0.425     0.121     0.000  119422.9   742118.8
  517.500     6.220     7.075     0.425     0.121     0.000  119601.0   743878.5
  518.000     6.227     7.083     0.424     0.121     0.000  119618.6   744831.0
  518.500     6.235     7.091     0.424     0.121     0.000  119895.9   747581.7
  519.000     6.245     7.102     0.424     0.121     0.000  120080.1   749883.7
  519.500     6.255     7.113     0.424     0.121     0.000  120415.6   753228.0
  520.000     6.266     7.125     0.424     0.121     0.000  120683.9   756191.0
  520.500     6.276     7.136     0.424     0.121     0.000  121028.6   759626.5
  521.000     6.286     7.148     0.424     0.120     0.000  121254.2   762253.1
  521.500     6.296     7.157     0.424     0.120     0.000  121564.0   765312.5
  522.000     6.304     7.167     0.424     0.120     0.000  121826.1   767933.9
  522.500     6.310     7.174     0.424     0.120     0.000  122072.0   770297.9
  523.000     6.316     7.180     0.424     0.120     0.000  122352.1   772715.4
  523.500     6.320     7.185     0.424     0.120     0.000  122530.5   774333.1
  524.000     6.322     7.188     0.424     0.121     0.000  122759.0   776136.0
  524.500     6.324     7.191     0.424     0.121     0.000  122890.8   777221.6
  525.000     6.326     7.193     0.424     0.120     0.000  122928.3   777645.8
  525.500     6.327     7.194     0.424     0.120     0.000  123049.7   778580.1
  526.000     6.329     7.196     0.424     0.120     0.000  123139.1   779318.1
  526.500     6.330     7.197     0.424     0.120     0.000  123278.1   780408.4
  527.000     6.333     7.200     0.423     0.120     0.000  123326.8   780984.7
  527.500     6.335     7.202     0.423     0.120     0.000  123501.4   782437.0
  528.000     6.339     7.206     0.423     0.120     0.000  123560.9   783236.6
  528.500     6.343     7.210     0.423     0.120     0.000  123771.6   785079.2
  529.000     6.348     7.215     0.422     0.120     0.000  123729.4   785382.0
  529.500     6.353     7.219     0.422     0.120     0.000  123965.2   787520.7
  530.000     6.358     7.225     0.421     0.120     0.000  123848.3   787450.8
  530.500     6.364     7.229     0.421     0.120     0.000  124087.8   789685.3
  531.000     6.370     7.236     0.420     0.119     0.000  123719.3   788038.2
  531.500     6.375     7.238     0.420     0.119     0.000  123940.7   790157.3
  532.000     6.381     7.244     0.418     0.119     0.000  123440.3   787614.0
  532.500     6.386     7.245     0.418     0.119     0.000  123618.4   789368.6
  533.000     6.390     7.249     0.416     0.118     0.000  122927.8   785467.3
  533.500     6.393     7.248     0.416     0.118     0.000  123041.7   786640.5
  534.000     6.396     7.251     0.413     0.117     0.000  122139.7   781169.0
  534.500     6.397     7.246     0.413     0.117     0.000  122174.4   781596.8
  535.000     6.398     7.246     0.412     0.117     0.000  121730.4   778784.2
  535.500     6.397     7.242     0.412     0.117     0.000  121662.9   778227.0
  536.000     6.394     7.239     0.408     0.115     0.000  119787.1   765919.3
  536.500     6.391     7.223     0.408     0.115     0.000  119649.3   764672.6
  537.000     6.386     7.218     0.405     0.114     0.000  118445.4   756430.8
  537.500     6.381     7.205     0.405     0.114     0.000  118224.8   754371.7
  538.000     6.374     7.197     0.402     0.113     0.000  116877.6   744965.2
  538.500     6.366     7.181     0.402     0.113     0.000  116591.0   742255.9
  539.000     6.358     7.171     0.399     0.113     0.000  115199.8   732393.3
  539.500     6.349     7.153     0.399     0.113     0.000  114869.3   729253.5
  540.000     6.339     7.142     0.397     0.112     0.000  113541.4   719707.8
  540.500     6.329     7.125     0.397     0.112     0.000  113193.1   716393.0
  541.000     6.319     7.113     0.394     0.111     0.000  111909.2   707136.1
  541.500     6.309     7.096     0.394     0.111     0.000  111572.6   703934.0
  542.000     6.300     7.085     0.392     0.110     0.000  110291.0   694798.4
  542.500     6.291     7.069     0.392     0.110     0.000  109994.2   691980.8
  543.000     6.283     7.060     0.389     0.109     0.000  108847.4   683878.5
  543.500     6.276     7.046     0.389     0.109     0.000  108607.7   681609.7
  544.000     6.270     7.038     0.387     0.109     0.000  107634.5   674817.3
  544.500     6.264     7.027     0.387     0.109     0.000  107458.2   673156.2
  545.000     6.260     7.022     0.385     0.108     0.000  106658.2   667669.8
  545.500     6.257     7.014     0.385     0.108     0.000  106542.7   666590.8
  546.000     6.254     7.011     0.384     0.107     0.000  105890.1   662225.1
  546.500     6.252     7.005     0.384     0.107     0.000  105827.8   661655.3
  547.000     6.251     7.004     0.382     0.107     0.000  105298.6   658227.5
  547.500     6.251     7.000     0.382     0.107     0.000  105280.3   658080.3
  548.000     6.251     7.000     0.381     0.107     0.000  104739.9   654718.5
  548.500     6.252     6.997     0.381     0.107     0.000  104760.1   654939.5
  549.000     6.253     6.999     0.379     0.106     0.000  104174.3   651409.8
  549.500     6.255     6.997     0.379     0.106     0.000  104229.5   651964.5
  550.000     6.257     6.999     0.377     0.105     0.000  103602.9   648284.8
  550.500     6.260     6.998     0.377     0.105     0.000  103691.2   649151.8
  551.000     6.264     7.001     0.375     0.105     0.000  102937.3   644769.4
  551.500     6.268     7.000     0.375     0.105     0.000  103058.5   645945.0
  552.000     6.272     7.005     0.372     0.104     0.000  102189.2   640931.8
  552.500     6.277     7.003     0.372     0.104     0.000  102344.9   642429.6
  553.000     6.282     7.009     0.368     0.103     0.000  101380.3   636911.8
  553.500     6.289     7.008     0.368     0.103     0.000  101573.1   638754.5
  554.000     6.295     7.015     0.364     0.101     0.000  100398.2   632011.4
  554.500     6.303     7.014     0.364     0.101     0.000  100634.1   634255.0
  555.000     6.310     7.022     0.360     0.100     0.000   99449.6   627562.4
  555.500     6.319     7.022     0.360     0.100     0.000   99731.1   630231.0
  556.000     6.329     7.033     0.356     0.099     0.000   98587.6   623912.5
  556.500     6.339     7.034     0.356     0.099     0.000   98914.5   627009.1
  557.000     6.350     7.046     0.352     0.098     0.000   97849.1   621296.2
  557.500     6.361     7.049     0.352     0.098     0.000   98215.8   624776.4
  558.000     6.373     7.062     0.348     0.096     0.000   97223.7   619618.1
  558.500     6.386     7.067     0.348     0.096     0.000   97617.3   623371.3
  559.000     6.399     7.081     0.344     0.095     0.000   96582.3   617982.3
  559.500     6.412     7.085     0.344     0.095     0.000   96983.7   621837.9
  560.000     6.425     7.100     0.340     0.094     0.000   96009.2   616817.6
  560.500     6.438     7.104     0.340     0.094     0.000   96392.3   620530.1
  561.000     6.450     7.118     0.337     0.093     0.000   95453.1   615637.3
  561.500     6.461     7.122     0.337     0.093     0.000   95792.0   618955.3
  562.000     6.472     7.133     0.333     0.092     0.000   94788.3   613469.5
  562.500     6.482     7.136     0.333     0.092     0.000   95064.9   616209.4
  563.000     6.490     7.145     0.329     0.090     0.000   94008.7   610160.0
  563.500     6.498     7.145     0.329     0.090     0.000   94215.4   612235.3
  564.000     6.504     7.151     0.325     0.089     0.000   93008.6   604972.5
  564.500     6.510     7.148     0.325     0.089     0.000   93149.2   606409.8
  565.000     6.514     7.153     0.324     0.089     0.000   92833.8   604739.4
  565.500     6.517     7.153     0.324     0.089     0.000   92897.3   605428.6
  566.000     6.519     7.155     0.318     0.087     0.000   90674.9   591086.0
  566.500     6.520     7.141     0.318     0.087     0.000   90696.5   591373.0
  567.000     6.520     7.141     0.315     0.086     0.000   89669.7   584682.0
  567.500     6.519     7.133     0.315     0.086     0.000   89616.7   584247.3
  568.000     6.517     7.130     0.311     0.085     0.000   88415.0   576158.4
  568.500     6.512     7.118     0.311     0.085     0.000   88272.9   574859.7
  569.000     6.506     7.111     0.309     0.084     0.000   87099.6   566652.8
  569.500     6.498     7.095     0.309     0.084     0.000   86852.1   564325.0
  570.000     6.487     7.084     0.307     0.084     0.000   85922.2   557356.4
  570.500     6.474     7.065     0.307     0.084     0.000   85562.0   553918.9
  571.000     6.459     7.049     0.305     0.083     0.000   84718.2   547163.9
  571.500     6.442     7.027     0.305     0.083     0.000   84262.5   542780.4
  572.000     6.423     7.006     0.305     0.083     0.000   83490.6   536232.1
  572.500     6.403     6.983     0.305     0.083     0.000   82978.8   531285.7
  573.000     6.382     6.960     0.304     0.083     0.000   82343.4   525505.0
  573.500     6.361     6.936     0.304     0.083     0.000   81827.0   520497.6
  574.000     6.340     6.914     0.305     0.083     0.000   81504.9   516771.7
  574.500     6.321     6.894     0.305     0.083     0.000   81031.6   512166.9
  575.000     6.302     6.873     0.305     0.083     0.000   80752.8   508916.0
  575.500     6.285     6.856     0.305     0.083     0.000   80364.9   505121.7
  576.000     6.271     6.840     0.305     0.083     0.000   80087.3   502193.4
  576.500     6.258     6.827     0.305     0.083     0.000   79808.5   499435.6
  577.000     6.248     6.815     0.305     0.083     0.000   79554.4   497016.2
  577.500     6.239     6.806     0.305     0.083     0.000   79386.9   495316.5
  578.000     6.233     6.799     0.305     0.083     0.000   79277.2   494140.6
  578.500     6.229     6.795     0.305     0.083     0.000   79203.9   493336.9
  579.000     6.226     6.792     0.305     0.083     0.000   79072.6   492295.9
  579.500     6.224     6.789     0.305     0.083     0.000   79068.1   492148.7
  580.000     6.224     6.789     0.305     0.083     0.000   79068.5   492107.7
  580.500     6.224     6.789     0.305     0.083     0.000   79100.2   492314.5
  581.000     6.224     6.789     0.305     0.083     0.000   79160.7   492732.7
  581.500     6.225     6.790     0.305     0.083     0.000   79200.5   493035.6
  582.000     6.226     6.791     0.305     0.083     0.000   79285.9   493623.5
  582.500     6.226     6.792     0.305     0.083     0.000   79315.2   493851.2
  583.000     6.227     6.792     0.306     0.083     0.000   79478.1   494898.0
  583.500     6.227     6.793     0.306     0.083     0.000   79487.3   494964.6
  584.000     6.227     6.793     0.306     0.084     0.000   79647.5   495955.6
  584.500     6.227     6.794     0.306     0.084     0.000   79637.2   495864.1
  585.000     6.226     6.794     0.306     0.084     0.000   79667.2   496013.3
  585.500     6.225     6.793     0.306     0.084     0.000   79645.7   495834.2
  586.000     6.225     6.793     0.306     0.084     0.000   79651.9   495827.4
  586.500     6.224     6.792     0.306     0.084     0.000   79629.0   495643.3
  587.000     6.224     6.792     0.307     0.084     0.000   79654.0   495771.0
  587.500     6.224     6.792     0.307     0.084     0.000   79642.3   495691.5
  588.000     6.224     6.793     0.307     0.084     0.000   79634.0   495668.2
  588.500     6.225     6.794     0.307     0.084     0.000   79651.9   495857.8
  589.000     6.227     6.796     0.307     0.084     0.000   79677.8   496163.5
  589.500     6.230     6.799     0.307     0.084     0.000   79746.7   496821.9
  590.000     6.234     6.803     0.307     0.084     0.000   79880.6   497989.4
  590.500     6.240     6.810     0.307     0.084     0.000   80022.0   499324.2
  591.000     6.247     6.818     0.307     0.084     0.000   80157.0   500757.9
  591.500     6.256     6.827     0.307     0.084     0.000   80390.3   502959.7
  592.000     6.268     6.840     0.306     0.083     0.000   80487.5   504469.0
  592.500     6.281     6.853     0.306     0.083     0.000   80822.7   507641.5
  593.000     6.296     6.869     0.305     0.083     0.000   80870.2   509165.0
  593.500     6.313     6.886     0.305     0.083     0.000   81303.8   513285.0
  594.000     6.332     6.906     0.303     0.083     0.000   81303.9   514801.0
  594.500     6.352     6.925     0.303     0.083     0.000   81819.6   519720.5
  595.000     6.373     6.948     0.302     0.082     0.000   81761.7   521087.7
  595.500     6.396     6.968     0.302     0.082     0.000   82335.3   526581.2
  596.000     6.418     6.993     0.300     0.082     0.000   82306.6   528270.5
  596.500     6.442     7.014     0.300     0.082     0.000   82912.9   534097.4
  597.000     6.465     7.039     0.298     0.081     0.000   83109.3   537303.0
  597.500     6.489     7.062     0.298     0.081     0.000   83727.3   543265.6
  598.000     6.512     7.087     0.298     0.081     0.000   84120.9   547778.3
  598.500     6.535     7.111     0.298     0.081     0.000   84739.3   553770.4
  599.000     6.558     7.136     0.297     0.081     0.000   85154.5   558438.2
  599.500     6.581     7.159     0.297     0.081     0.000   85771.0   564444.5
  600.000     6.604     7.184     0.297     0.081     0.000   86198.8   569218.4
  600.500     6.626     7.208     0.297     0.081     0.000   86815.1   575260.2
  601.000     6.649     7.232     0.296     0.080     0.000   87219.3   579913.7
  601.500     6.672     7.256     0.296     0.080     0.000   87838.9   586033.7
  602.000     6.695     7.280     0.295     0.080     0.000   88199.8   590454.0
  602.500     6.718     7.304     0.295     0.080     0.000   88826.1   596693.9
  603.000     6.741     7.329     0.294     0.080     0.000   89110.6   600667.1
  603.500     6.764     7.352     0.294     0.080     0.000   89744.6   607044.0
  604.000     6.788     7.378     0.293     0.079     0.000   89724.1   609013.3
  604.500     6.812     7.399     0.293     0.079     0.000   90367.2   615541.2
  605.000     6.836     7.425     0.291     0.079     0.000   90339.8   617518.2
  605.500     6.860     7.447     0.291     0.079     0.000   90989.7   624178.2
  606.000     6.884     7.474     0.289     0.078     0.000   90998.3   626456.1
  606.500     6.909     7.497     0.289     0.078     0.000   91653.4   633240.1
  607.000     6.934     7.524     0.287     0.078     0.000   91679.3   635697.7
  607.500     6.959     7.547     0.287     0.078     0.000   92336.7   642590.4
  608.000     6.984     7.574     0.286     0.078     0.000   92517.8   646186.3
  608.500     7.010     7.599     0.286     0.078     0.000   93166.9   653086.0
  609.000     7.035     7.626     0.285     0.077     0.000   93448.7   657401.8
  609.500     7.060     7.651     0.285     0.077     0.000   94068.8   664084.5
  610.000     7.083     7.676     0.285     0.077     0.000   94479.6   669227.0
  610.500     7.106     7.700     0.285     0.077     0.000   95039.6   675339.0
  611.000     7.127     7.722     0.285     0.077     0.000   95561.9   681049.9
  611.500     7.146     7.743     0.285     0.077     0.000   96027.0   686184.1
  612.000     7.162     7.761     0.285     0.077     0.000   96515.9   691286.6
  612.500     7.177     7.777     0.285     0.077     0.000   96857.9   695104.4
  613.000     7.188     7.789     0.285     0.077     0.000   97295.5   699361.7
  613.500     7.197     7.800     0.285     0.077     0.000   97497.3   701654.0
  614.000     7.203     7.806     0.285     0.077     0.000   97465.8   701999.1
  614.500     7.206     7.808     0.285     0.077     0.000   97528.4   702763.7
  615.000     7.206     7.809     0.284     0.077     0.000   97327.1   701361.6
  615.500     7.204     7.806     0.284     0.077     0.000   97254.1   700636.9
  616.000     7.200     7.801     0.284     0.077     0.000   96845.8   697245.8
  616.500     7.193     7.791     0.284     0.077     0.000   96645.5   695127.2
  617.000     7.183     7.781     0.283     0.077     0.000   96180.9   690879.0
  617.500     7.172     7.767     0.283     0.077     0.000   95864.6   687498.4
  618.000     7.158     7.753     0.283     0.077     0.000   95294.2   682108.8
  618.500     7.143     7.735     0.283     0.077     0.000   94886.8   677741.7
  619.000     7.126     7.717     0.283     0.076     0.000   94363.8   672429.0
  619.500     7.108     7.697     0.283     0.076     0.000   93904.6   667501.1
  620.000     7.090     7.677     0.283     0.077     0.000   93495.1   662899.7
  620.500     7.072     7.658     0.283     0.077     0.000   93039.2   657996.0
  621.000     7.055     7.640     0.283     0.077     0.000   92784.7   654602.2
  621.500     7.039     7.624     0.283     0.077     0.000   92397.8   650408.6
  622.000     7.026     7.609     0.285     0.077     0.000   92615.1   650668.2
  622.500     7.014     7.600     0.285     0.077     0.000   92359.5   647831.1
  623.000     7.006     7.592     0.286     0.077     0.000   92649.0   649135.1
  623.500     7.002     7.590     0.286     0.077     0.000   92590.4   648340.9
  624.000     7.003     7.590     0.287     0.078     0.000   92965.2   650996.5
  624.500     7.008     7.598     0.287     0.078     0.000   93151.0   652759.1
  625.000     7.017     7.608     0.287     0.078     0.000   93571.6   656638.2
  625.500     7.032     7.625     0.287     0.078     0.000   94018.4   661172.4
  626.000     7.052     7.647     0.287     0.078     0.000   94583.3   667002.2
  626.500     7.076     7.672     0.287     0.078     0.000   95266.5   674102.8
  627.000     7.104     7.703     0.286     0.078     0.000   95845.1   680851.6
  627.500     7.134     7.735     0.286     0.078     0.000   96703.9   689932.5
  628.000     7.167     7.770     0.285     0.077     0.000   97240.3   696968.4
  628.500     7.202     7.806     0.285     0.077     0.000   98194.2   707205.3
  629.000     7.237     7.844     0.284     0.077     0.000   98777.7   714889.6
  629.500     7.273     7.880     0.284     0.077     0.000   99749.5   725461.9
  630.000     7.308     7.918     0.283     0.077     0.000  100181.5   732106.3
  630.500     7.342     7.952     0.283     0.077     0.000  101119.7   742443.5
  631.000     7.376     7.988     0.282     0.076     0.000  101601.9   749370.1
  631.500     7.408     8.020     0.282     0.076     0.000  102481.5   759175.3
  632.000     7.439     8.054     0.281     0.076     0.000  102983.3   766092.1
  632.500     7.469     8.084     0.281     0.076     0.000  103792.8   775215.0
  633.000     7.497     8.115     0.281     0.076     0.000  104247.5   781560.8
  633.500     7.524     8.142     0.281     0.076     0.000  104966.9   789750.2
  634.000     7.548     8.168     0.280     0.076     0.000  105362.8   795296.6
  634.500     7.570     8.190     0.280     0.076     0.000  105947.9   802020.4
  635.000     7.588     8.210     0.280     0.076     0.000  106264.3   806374.3
  635.500     7.603     8.225     0.280     0.076     0.000  106651.3   810869.3
  636.000     7.613     8.236     0.280     0.076     0.000  106924.7   814032.2
  636.500     7.618     8.242     0.280     0.076     0.000  107052.5   815566.0
  637.000     7.618     8.242     0.280     0.076     0.000  107198.9   816693.6
  637.500     7.613     8.237     0.280     0.076     0.000  107038.8   814923.0
  638.000     7.603     8.226     0.281     0.076     0.000  107023.2   813722.8
  638.500     7.588     8.212     0.281     0.076     0.000  106594.8   808885.9
  639.000     7.570     8.192     0.282     0.076     0.000  106555.0   806583.1
  639.500     7.547     8.170     0.282     0.076     0.000  105918.3   799397.8
  640.000     7.523     8.144     0.283     0.077     0.000  105837.5   796163.3
  640.500     7.496     8.118     0.283     0.077     0.000  105075.1   787603.2
  641.000     7.468     8.088     0.286     0.077     0.000  105311.3   786442.4
  641.500     7.439     8.063     0.286     0.077     0.000  104494.4   777334.9
  642.000     7.410     8.032     0.288     0.078     0.000  104800.1   776620.9
  642.500     7.382     8.008     0.288     0.078     0.000  103989.4   767651.2
  643.000     7.355     7.978     0.291     0.079     0.000  104411.6   767910.8
  643.500     7.328     7.956     0.291     0.079     0.000  103648.5   759533.9
  644.000     7.303     7.929     0.294     0.080     0.000  104188.8   760898.0
  644.500     7.279     7.911     0.294     0.080     0.000  103506.7   753467.6
  645.000     7.258     7.888     0.297     0.081     0.000  104197.9   756280.4
  645.500     7.239     7.875     0.297     0.081     0.000  103629.6   750138.9
  646.000     7.222     7.857     0.300     0.082     0.000  104376.4   753818.8
  646.500     7.208     7.849     0.300     0.082     0.000  103953.5   749290.1
  647.000     7.197     7.837     0.303     0.083     0.000  104780.9   754102.3
  647.500     7.188     7.835     0.303     0.083     0.000  104515.3   751292.2
  648.000     7.183     7.829     0.305     0.083     0.000  105294.3   756294.4
  648.500     7.179     7.831     0.305     0.083     0.000  105171.9   755025.9
  649.000     7.177     7.829     0.307     0.084     0.000  105779.1   759225.8
  649.500     7.177     7.833     0.307     0.084     0.000  105769.0   759140.6
  650.000     7.179     7.834     0.307     0.084     0.000  106078.4   761504.4
  650.500     7.181     7.839     0.307     0.084     0.000  106153.5   762295.8
  651.000     7.184     7.842     0.307     0.084     0.000  106286.1   763612.3
  651.500     7.189     7.847     0.307     0.084     0.000  106431.7   765125.2
  652.000     7.194     7.853     0.307     0.084     0.000  106229.1   764236.1
  652.500     7.201     7.858     0.307     0.084     0.000  106445.8   766494.1
  653.000     7.208     7.866     0.305     0.083     0.000  106165.9   765279.0
  653.500     7.217     7.873     0.305     0.083     0.000  106451.3   768277.3
  654.000     7.227     7.883     0.304     0.083     0.000  106342.6   768529.5
  654.500     7.238     7.892     0.304     0.083     0.000  106683.0   772143.8
  655.000     7.249     7.905     0.303     0.083     0.000  106613.4   772865.0
  655.500     7.261     7.916     0.303     0.083     0.000  106988.4   776893.4
  656.000     7.274     7.929     0.303     0.082     0.000  107111.2   779126.2
  656.500     7.287     7.942     0.303     0.082     0.000  107490.9   783255.0
  657.000     7.299     7.955     0.302     0.082     0.000  107709.8   786196.1
  657.500     7.311     7.967     0.302     0.082     0.000  108061.0   790065.4
  658.000     7.323     7.980     0.302     0.082     0.000  108409.5   793837.0
  658.500     7.333     7.991     0.302     0.082     0.000  108696.6   797044.3
  659.000     7.342     8.001     0.303     0.082     0.000  109019.3   800366.6
  659.500     7.349     8.009     0.303     0.082     0.000  109211.1   802545.4
  660.000     7.354     8.014     0.303     0.083     0.000  109546.8   805578.2
  660.500     7.357     8.019     0.303     0.083     0.000  109617.9   806426.5
  661.000     7.357     8.020     0.303     0.083     0.000  109825.2   808035.6
  661.500     7.356     8.019     0.303     0.083     0.000  109764.0   807407.3
  662.000     7.352     8.015     0.304     0.083     0.000  109754.6   806912.0
  662.500     7.346     8.009     0.304     0.083     0.000  109563.1   804828.5
  663.000     7.338     8.000     0.304     0.083     0.000  109418.5   802859.2
  663.500     7.327     7.989     0.304     0.083     0.000  109108.2   799454.8
  664.000     7.315     7.976     0.304     0.083     0.000  108869.9   796385.8
  664.500     7.301     7.962     0.304     0.083     0.000  108458.9   791875.0
  665.000     7.286     7.945     0.304     0.083     0.000  108065.8   787350.2
  665.500     7.269     7.927     0.304     0.083     0.000  107577.4   782006.5
  666.000     7.252     7.908     0.304     0.083     0.000  106940.9   775491.0
  666.500     7.233     7.887     0.304     0.083     0.000  106400.1   769602.3
  667.000     7.214     7.866     0.304     0.083     0.000  105651.1   762150.0
  667.500     7.194     7.843     0.304     0.083     0.000  105075.8   755918.7
  668.000     7.174     7.821     0.303     0.083     0.000  104398.1   748915.2
  668.500     7.153     7.798     0.303     0.083     0.000  103796.2   742433.5
  669.000     7.131     7.774     0.303     0.083     0.000  103025.3   734723.7
  669.500     7.110     7.750     0.303     0.083     0.000  102406.2   728093.6
  670.000     7.088     7.726     0.303     0.082     0.000  101628.6   720330.1
  670.500     7.066     7.701     0.303     0.082     0.000  100999.8   713634.0
  671.000     7.043     7.676     0.302     0.082     0.000  100276.4   706278.5
  671.500     7.021     7.651     0.302     0.082     0.000   99647.0   699612.3
  672.000     6.999     7.627     0.302     0.082     0.000   98906.1   692196.0
  672.500     6.976     7.602     0.302     0.082     0.000   98289.1   685697.6
  673.000     6.954     7.578     0.302     0.082     0.000   97635.4   678994.8
  673.500     6.933     7.554     0.302     0.082     0.000   97040.6   672765.9
  674.000     6.912     7.531     0.302     0.082     0.000   96484.2   666868.5
  674.500     6.891     7.509     0.302     0.082     0.000   95917.0   660963.6
  675.000     6.871     7.487     0.302     0.082     0.000   95466.1   655928.3
  675.500     6.851     7.466     0.302     0.082     0.000   94925.5   650336.9
  676.000     6.832     7.445     0.302     0.082     0.000   94383.2   644798.5
  676.500     6.813     7.424     0.302     0.082     0.000   93867.1   639498.8
  677.000     6.794     7.404     0.302     0.082     0.000   93402.1   634596.2
  677.500     6.776     7.384     0.302     0.082     0.000   92901.4   629490.4
  678.000     6.758     7.365     0.303     0.083     0.000   92550.3   625430.7
  678.500     6.740     7.346     0.303     0.083     0.000   92054.8   620411.9
  679.000     6.722     7.326     0.303     0.083     0.000   91780.0   616899.2
  679.500     6.703     7.308     0.303     0.083     0.000   91283.1   611896.1
  680.000     6.685     7.288     0.304     0.083     0.000   91056.8   608719.4
  680.500     6.667     7.270     0.304     0.083     0.000   90556.4   603708.1
  681.000     6.648     7.250     0.306     0.083     0.000   90598.2   602323.6
  681.500     6.630     7.233     0.306     0.083     0.000   90092.0   597284.1
  682.000     6.611     7.213     0.307     0.084     0.000   90160.0   596079.5
  682.500     6.593     7.197     0.307     0.084     0.000   89659.3   591126.4
  683.000     6.575     7.177     0.309     0.084     0.000   89802.4   590477.7
  683.500     6.558     7.163     0.309     0.084     0.000   89327.0   585809.3
  684.000     6.542     7.145     0.312     0.085     0.000   89873.1   587939.9
  684.500     6.527     7.135     0.312     0.085     0.000   89445.3   583770.4
  685.000     6.513     7.120     0.315     0.086     0.000   90019.7   586296.7
  685.500     6.501     7.113     0.315     0.086     0.000   89675.2   582964.2
  686.000     6.491     7.103     0.316     0.087     0.000   89870.2   583346.0
  686.500     6.483     7.097     0.316     0.087     0.000   89646.5   581204.3
  687.000     6.478     7.092     0.317     0.087     0.000   89935.5   582612.2
  687.500     6.475     7.091     0.317     0.087     0.000   89840.5   581727.9
  688.000     6.474     7.091     0.318     0.087     0.000   90082.1   583228.4
  688.500     6.476     7.094     0.318     0.087     0.000   90100.2   583445.4
  689.000     6.478     7.097     0.319     0.087     0.000   90306.8   585028.1
  689.500     6.482     7.102     0.319     0.087     0.000   90402.4   585991.4
  690.000     6.487     7.107     0.319     0.088     0.000   90794.7   588953.4
  690.500     6.492     7.114     0.319     0.088     0.000   90927.1   590261.0
  691.000     6.497     7.120     0.320     0.088     0.000   91189.3   592443.8
  691.500     6.502     7.127     0.320     0.088     0.000   91342.5   593940.2
  692.000     6.508     7.133     0.320     0.088     0.000   91576.7   596003.8
  692.500     6.515     7.141     0.320     0.088     0.000   91761.7   597806.1
  693.000     6.522     7.149     0.320     0.088     0.000   91918.5   599518.0
  693.500     6.531     7.159     0.320     0.088     0.000   92168.9   601970.9
  694.000     6.542     7.170     0.319     0.088     0.000   92317.1   603915.6
  694.500     6.554     7.183     0.319     0.088     0.000   92667.0   607372.5
  695.000     6.569     7.199     0.319     0.087     0.000   92853.8   609956.2
  695.500     6.586     7.216     0.319     0.087     0.000   93316.5   614558.3
  696.000     6.604     7.236     0.318     0.087     0.000   93471.0   617306.0
  696.500     6.624     7.256     0.318     0.087     0.000   94028.4   622881.7
  697.000     6.646     7.279     0.317     0.087     0.000   94194.9   625972.0
  697.500     6.667     7.300     0.317     0.087     0.000   94803.1   632085.2
  698.000     6.689     7.324     0.315     0.086     0.000   94874.3   634633.3
  698.500     6.711     7.344     0.315     0.086     0.000   95482.9   640784.3
  699.000     6.732     7.367     0.314     0.086     0.000   95476.1   642745.5
  699.500     6.752     7.385     0.314     0.086     0.000   96043.9   648522.0
  700.000     6.771     7.406     0.312     0.085     0.000   95884.8   649278.3
  700.500     6.790     7.422     0.312     0.085     0.000   96388.2   654433.6
  701.000     6.806     7.440     0.310     0.085     0.000   96158.8   654474.0
  701.500     6.822     7.452     0.310     0.085     0.000   96587.9   658889.7
  702.000     6.836     7.467     0.308     0.084     0.000   96258.7   657980.4
  702.500     6.848     7.477     0.308     0.084     0.000   96613.4   661636.4
  703.000     6.859     7.489     0.306     0.084     0.000   96265.5   660329.0
  703.500     6.870     7.495     0.306     0.084     0.000   96549.1   663245.9
  704.000     6.878     7.505     0.303     0.083     0.000   95781.5   658794.3
  704.500     6.886     7.507     0.303     0.083     0.000   96003.6   661069.0
  705.000     6.892     7.514     0.301     0.082     0.000   95201.9   656154.9
  705.500     6.898     7.513     0.301     0.082     0.000   95363.7   657804.2
  706.000     6.902     7.518     0.298     0.081     0.000   94543.1   652541.8
  706.500     6.905     7.516     0.298     0.081     0.000   94643.2   653554.5
  707.000     6.907     7.518     0.297     0.081     0.000   94067.4   649765.0
  707.500     6.908     7.515     0.297     0.081     0.000   94099.9   650080.1
  708.000     6.908     7.514     0.295     0.080     0.000   93541.7   646180.6
  708.500     6.906     7.509     0.295     0.080     0.000   93506.7   645795.6
  709.000     6.903     7.506     0.294     0.080     0.000   93011.3   642101.7
  709.500     6.899     7.499     0.294     0.080     0.000   92911.5   641041.3
  710.000     6.894     7.493     0.293     0.080     0.000   92282.0   636211.2
  710.500     6.888     7.483     0.293     0.080     0.000   92127.8   634582.0
  711.000     6.881     7.475     0.292     0.079     0.000   91542.3   629890.5
  711.500     6.873     7.464     0.292     0.079     0.000   91345.7   627823.1
  712.000     6.865     7.455     0.285     0.077     0.000   88619.2   608330.8
  712.500     6.857     7.431     0.285     0.077     0.000   88437.2   606426.3
  713.000     6.849     7.422     0.284     0.077     0.000   87855.0   601757.5
  713.500     6.842     7.412     0.284     0.077     0.000   87666.7   599810.1
  714.000     6.835     7.404     0.282     0.076     0.000   86723.1   592720.8
  714.500     6.828     7.392     0.282     0.076     0.000   86557.1   591033.0
  715.000     6.822     7.386     0.280     0.076     0.000   85666.4   584458.7
  715.500     6.818     7.376     0.280     0.076     0.000   85541.7   583224.7
  716.000     6.814     7.372     0.277     0.075     0.000   84611.1   576581.0
  716.500     6.812     7.365     0.277     0.075     0.000   84542.7   575944.6
  717.000     6.812     7.364     0.276     0.074     0.000   83850.5   571148.0
  717.500     6.812     7.360     0.276     0.074     0.000   83841.4   571124.7
  718.000     6.813     7.361     0.273     0.074     0.000   83076.1   566031.1
  718.500     6.816     7.359     0.273     0.074     0.000   83125.5   566599.7
  719.000     6.820     7.363     0.271     0.073     0.000   82293.3   561214.3
  719.500     6.824     7.362     0.271     0.073     0.000   82388.5   562238.5
  720.000     6.829     7.367     0.268     0.072     0.000   81472.0   556371.4
  720.500     6.834     7.366     0.268     0.072     0.000   81588.3   557596.0
  721.000     6.839     7.371     0.265     0.071     0.000   80589.1   551152.4
  721.500     6.844     7.369     0.265     0.071     0.000   80694.3   552245.1
  722.000     6.847     7.373     0.262     0.070     0.000   79631.9   545246.0
  722.500     6.850     7.368     0.262     0.070     0.000   79696.4   545899.8
  723.000     6.851     7.369     0.259     0.070     0.000   78766.4   539607.7
  723.500     6.851     7.363     0.259     0.070     0.000   78772.2   539636.8
  724.000     6.849     7.361     0.257     0.069     0.000   78161.8   535314.5
  724.500     6.846     7.354     0.257     0.069     0.000   78108.6   534723.1
  725.000     6.842     7.350     0.256     0.069     0.000   77556.0   530623.6
  725.500     6.837     7.342     0.256     0.069     0.000   77466.9   529660.3
  726.000     6.832     7.337     0.255     0.068     0.000   76953.8   525773.3
  726.500     6.828     7.329     0.255     0.068     0.000   76863.0   524801.7
  727.000     6.824     7.325     0.255     0.068     0.000   76919.3   524874.0
  727.500     6.820     7.322     0.255     0.068     0.000   76852.3   524166.3
  728.000     6.818     7.320     0.255     0.069     0.000   76878.7   524184.8
  728.500     6.818     7.319     0.255     0.069     0.000   76861.2   524006.7
  729.000     6.818     7.320     0.256     0.069     0.000   77191.9   526313.5
  729.500     6.820     7.324     0.256     0.069     0.000   77230.0   526722.1
  730.000     6.823     7.328     0.257     0.069     0.000   77554.9   529193.6
  730.500     6.828     7.334     0.257     0.069     0.000   77645.5   530149.4
  731.000     6.833     7.340     0.257     0.069     0.000   77912.7   532393.1
  731.500     6.839     7.347     0.257     0.069     0.000   78045.6   533781.4
  732.000     6.846     7.355     0.258     0.069     0.000   78287.7   535972.4
  732.500     6.854     7.363     0.258     0.069     0.000   78450.9   537664.1
  733.000     6.861     7.372     0.258     0.069     0.000   78682.4   539859.2
  733.500     6.869     7.381     0.258     0.069     0.000   78866.5   541756.0
  734.000     6.878     7.390     0.258     0.069     0.000   79150.9   544366.6
  734.500     6.886     7.399     0.258     0.069     0.000   79348.5   546394.5
  735.000     6.895     7.408     0.258     0.069     0.000   79568.6   548592.0
  735.500     6.903     7.418     0.258     0.069     0.000   79773.6   550692.1
  736.000     6.912     7.427     0.259     0.069     0.000   80096.9   553609.8
  736.500     6.920     7.437     0.259     0.069     0.000   80298.3   555670.0
  737.000     6.928     7.445     0.259     0.070     0.000   80726.4   559279.7
  737.500     6.936     7.455     0.259     0.070     0.000   80909.6   561150.7
  738.000     6.942     7.462     0.260     0.070     0.000   81441.5   565398.7
  738.500     6.948     7.471     0.260     0.070     0.000   81592.0   566931.0
  739.000     6.954     7.477     0.261     0.070     0.000   82125.1   571066.9
  739.500     6.958     7.484     0.261     0.070     0.000   82236.4   572196.7
  740.000     6.962     7.488     0.262     0.070     0.000   82618.9   575167.6
  740.500     6.965     7.493     0.262     0.070     0.000   82700.5   575998.9
  741.000     6.968     7.496     0.263     0.071     0.000   83172.9   579546.0
  741.500     6.971     7.502     0.263     0.071     0.000   83247.1   580319.4
  742.000     6.975     7.506     0.264     0.071     0.000   83755.9   584177.3
  742.500     6.979     7.514     0.264     0.071     0.000   83857.1   585258.8
  743.000     6.985     7.520     0.266     0.072     0.000   84506.8   590289.6
  743.500     6.992     7.531     0.266     0.072     0.000   84668.2   592031.9
  744.000     7.002     7.541     0.267     0.072     0.000   85533.7   598868.9
  744.500     7.012     7.557     0.267     0.072     0.000   85776.4   601494.7
  745.000     7.025     7.571     0.269     0.073     0.000   86772.8   609595.7
  745.500     7.040     7.591     0.269     0.073     0.000   87100.5   613144.8
  746.000     7.056     7.608     0.271     0.073     0.000   88241.3   622588.8
  746.500     7.072     7.631     0.271     0.073     0.000   88639.5   626900.7
  747.000     7.091     7.651     0.273     0.074     0.000   89796.4   636702.0
  747.500     7.109     7.675     0.273     0.074     0.000   90240.1   641500.6
  748.000     7.128     7.695     0.275     0.074     0.000   91284.9   650638.6
  748.500     7.146     7.719     0.275     0.074     0.000   91748.0   655637.6
  749.000     7.165     7.739     0.276     0.075     0.000   92677.2   663986.6
  749.500     7.182     7.761     0.276     0.075     0.000   93139.9   668972.4
  750.000     7.200     7.780     0.277     0.075     0.000   93855.2   675766.4
  750.500     7.217     7.800     0.277     0.075     0.000   94310.6   680667.4
  751.000     7.234     7.818     0.277     0.075     0.000   95032.8   687492.4
  751.500     7.251     7.838     0.277     0.075     0.000   95483.6   692344.8
  752.000     7.268     7.856     0.278     0.075     0.000   96138.7   698698.7
  752.500     7.284     7.876     0.278     0.075     0.000   96598.5   703657.4
  753.000     7.301     7.894     0.278     0.075     0.000   97292.1   710373.3
  753.500     7.319     7.914     0.278     0.075     0.000   97779.5   715644.9
  754.000     7.337     7.934     0.279     0.075     0.000   98572.6   723248.8
  754.500     7.356     7.956     0.279     0.075     0.000   99106.3   729042.9
  755.000     7.376     7.978     0.280     0.076     0.000  100011.5   737698.8
  755.500     7.397     8.002     0.280     0.076     0.000  100603.7   744161.7
  756.000     7.419     8.026     0.280     0.076     0.000  101428.3   752481.2
  756.500     7.442     8.052     0.280     0.076     0.000  102080.3   759640.9
  757.000     7.465     8.077     0.281     0.076     0.000  102908.2   768228.1
  757.500     7.489     8.104     0.281     0.076     0.000  103602.5   775906.0
  758.000     7.514     8.131     0.281     0.076     0.000  104341.1   783982.4
  758.500     7.538     8.157     0.281     0.076     0.000  105043.0   791811.8
  759.000     7.562     8.183     0.280     0.076     0.000  105647.1   798888.7
  759.500     7.585     8.208     0.280     0.076     0.000  106309.9   806353.4
  760.000     7.607     8.231     0.281     0.076     0.000  106972.8   813709.7
  760.500     7.627     8.253     0.281     0.076     0.000  107544.1   820208.5
  761.000     7.645     8.273     0.286     0.077     0.000  110497.4   844713.8
  761.500     7.659     8.302     0.286     0.077     0.000  110904.3   849386.4
  762.000     7.670     8.315     0.286     0.077     0.000  111139.7   852482.2
  762.500     7.680     8.324     0.286     0.077     0.000  111401.9   855520.1
  763.000     7.686     8.331     0.286     0.078     0.000  111818.2   859477.1
  763.500     7.691     8.337     0.286     0.078     0.000  111940.2   860908.4
  764.000     7.693     8.340     0.287     0.078     0.000  112298.8   863936.2
  764.500     7.694     8.342     0.287     0.078     0.000  112307.2   864056.8
  765.000     7.693     8.341     0.287     0.078     0.000  112426.0   864870.9
  765.500     7.691     8.340     0.287     0.078     0.000  112359.7   864128.6
  766.000     7.688     8.337     0.287     0.078     0.000  112328.0   863567.8
  766.500     7.685     8.334     0.287     0.078     0.000  112223.7   862389.6
  767.000     7.681     8.330     0.287     0.078     0.000  111998.7   860256.3
  767.500     7.677     8.325     0.287     0.078     0.000  111887.3   858997.7
  768.000     7.674     8.321     0.287     0.078     0.000  111644.5   856738.3
  768.500     7.670     8.317     0.287     0.078     0.000  111543.4   855592.7
  769.000     7.667     8.314     0.286     0.078     0.000  111288.8   853289.9
  769.500     7.664     8.309     0.286     0.078     0.000  111205.5   852330.6
  770.000     7.662     8.306     0.286     0.078     0.000  111099.9   851213.7
  770.500     7.659     8.303     0.286     0.078     0.000  111031.0   850390.2
  771.000     7.656     8.301     0.286     0.078     0.000  111013.9   849964.8
  771.500     7.654     8.298     0.286     0.078     0.000  110950.8   849177.7
  772.000     7.651     8.295     0.288     0.078     0.000  111401.7   852309.9
  772.500     7.647     8.294     0.288     0.078     0.000  111322.4   851323.6
  773.000     7.644     8.290     0.289     0.078     0.000  111784.4   854443.4
  773.500     7.639     8.288     0.289     0.078     0.000  111672.9   853097.1
  774.000     7.634     8.283     0.290     0.079     0.000  112104.2   855847.3
  774.500     7.629     8.280     0.290     0.079     0.000  111947.0   854008.1
  775.000     7.622     8.273     0.290     0.079     0.000  111689.3   851348.0
  775.500     7.616     8.266     0.290     0.079     0.000  111492.3   849099.8
  776.000     7.609     8.258     0.292     0.079     0.000  112425.6   855394.5
  776.500     7.600     8.255     0.292     0.079     0.000  112163.3   852447.6
  777.000     7.591     8.246     0.293     0.080     0.000  112273.7   852284.8
  777.500     7.582     8.238     0.293     0.080     0.000  111969.9   848905.3
  778.000     7.572     8.227     0.294     0.080     0.000  112190.4   849459.7
  778.500     7.561     8.218     0.294     0.080     0.000  111849.0   845681.0
  779.000     7.550     8.206     0.294     0.080     0.000  111341.9   840618.9
  779.500     7.539     8.193     0.294     0.080     0.000  110983.3   836657.2
  780.000     7.527     8.180     0.294     0.080     0.000  110642.5   832794.9
  780.500     7.515     8.167     0.294     0.080     0.000  110266.0   828630.9
  781.000     7.502     8.154     0.295     0.080     0.000  110297.4   827500.8
  781.500     7.490     8.142     0.295     0.080     0.000  109903.6   823132.8
  782.000     7.477     8.128     0.296     0.081     0.000  110052.8   822830.2
  782.500     7.464     8.117     0.296     0.081     0.000  109658.1   818441.6
  783.000     7.451     8.104     0.298     0.081     0.000  109967.7   819355.8
  783.500     7.438     8.094     0.298     0.081     0.000  109596.2   815219.9
  784.000     7.427     8.082     0.300     0.082     0.000  110093.3   817646.1
  784.500     7.416     8.075     0.300     0.082     0.000  109771.3   814057.4
  785.000     7.406     8.064     0.302     0.082     0.000  110456.6   818089.0
  785.500     7.398     8.061     0.302     0.082     0.000  110203.6   815267.4
  786.000     7.391     8.053     0.304     0.083     0.000  110939.7   819937.1
  786.500     7.385     8.052     0.304     0.083     0.000  110763.0   817964.6
  787.000     7.380     8.047     0.306     0.083     0.000  111481.7   822764.6
  787.500     7.376     8.048     0.306     0.083     0.000  111370.9   821522.7
  788.000     7.374     8.045     0.308     0.084     0.000  111994.7   825814.4
  788.500     7.371     8.047     0.308     0.084     0.000  111924.8   825025.2
  789.000     7.369     8.045     0.309     0.084     0.000  112394.7   828268.1
  789.500     7.367     8.046     0.309     0.084     0.000  112338.0   827618.4
  790.000     7.365     8.043     0.309     0.084     0.000  112362.6   827574.2
  790.500     7.363     8.042     0.309     0.084     0.000  112306.9   826926.5
  791.000     7.361     8.039     0.309     0.084     0.000  112238.5   826174.3
  791.500     7.359     8.037     0.309     0.084     0.000  112181.9   825502.7
  792.000     7.356     8.034     0.309     0.084     0.000  111988.5   823825.0
  792.500     7.354     8.031     0.309     0.084     0.000  111939.6   823224.7
  793.000     7.352     8.029     0.308     0.084     0.000  111805.0   821997.2
  793.500     7.350     8.026     0.308     0.084     0.000  111759.3   821420.0
  794.000     7.347     8.023     0.308     0.084     0.000  111659.6   820409.3
  794.500     7.344     8.019     0.308     0.084     0.000  111587.0   819524.1
  795.000     7.340     8.015     0.309     0.084     0.000  111597.3   819122.4
  795.500     7.334     8.009     0.309     0.084     0.000  111444.1   817338.1
  796.000     7.326     8.000     0.309     0.084     0.000  111272.6   815207.0
  796.500     7.316     7.990     0.309     0.084     0.000  110999.0   812094.4
  797.000     7.304     7.976     0.309     0.084     0.000  110806.7   809351.4
  797.500     7.290     7.962     0.309     0.084     0.000  110413.9   804946.3
  798.000     7.275     7.946     0.309     0.085     0.000  110180.0   801576.1
  798.500     7.259     7.930     0.309     0.085     0.000  109726.7   796557.4
  799.000     7.244     7.913     0.310     0.085     0.000  109498.0   793224.3
  799.500     7.230     7.899     0.310     0.085     0.000  109077.1   788632.3
  800.000     7.218     7.886     0.311     0.085     0.000  108938.9   786314.6
  800.500     7.208     7.877     0.311     0.085     0.000  108636.7   783088.5
  801.000     7.202     7.869     0.311     0.085     0.000  108535.6   781653.5
  801.500     7.199     7.867     0.311     0.085     0.000  108408.9   780387.3
  802.000     7.199     7.867     0.311     0.085     0.000  108379.2   780185.4
  802.500     7.202     7.870     0.311     0.085     0.000  108443.2   781012.3
  803.000     7.209     7.877     0.310     0.085     0.000  108441.6   781702.2
  803.500     7.218     7.887     0.310     0.085     0.000  108683.5   784466.7
  804.000     7.230     7.900     0.310     0.085     0.000  108665.0   785628.3
  804.500     7.244     7.913     0.310     0.085     0.000  109055.4   790009.6
  805.000     7.260     7.931     0.309     0.084     0.000  109164.4   792555.7
  805.500     7.278     7.948     0.309     0.084     0.000  109660.0   798091.2
  806.000     7.296     7.968     0.308     0.084     0.000  109631.8   799925.6
  806.500     7.316     7.986     0.308     0.084     0.000  110185.3   806103.9
  807.000     7.335     8.007     0.306     0.084     0.000  110119.3   807760.8
  807.500     7.355     8.025     0.306     0.084     0.000  110677.2   813997.3
  808.000     7.373     8.045     0.305     0.083     0.000  110698.2   816197.3
  808.500     7.391     8.061     0.305     0.083     0.000  111207.1   821900.4
  809.000     7.407     8.078     0.304     0.083     0.000  111222.7   823787.7
  809.500     7.421     8.091     0.304     0.083     0.000  111640.1   828483.5
  810.000     7.433     8.105     0.303     0.083     0.000  111602.7   829580.5
  810.500     7.444     8.114     0.303     0.083     0.000  111901.6   832967.7
  811.000     7.452     8.123     0.295     0.080     0.000  108452.5   808181.9
  811.500     7.460     8.110     0.295     0.080     0.000  108676.9   810751.9
  812.000     7.466     8.116     0.294     0.080     0.000  108528.0   810280.1
  812.500     7.470     8.118     0.294     0.080     0.000  108618.9   811365.0
  813.000     7.471     8.120     0.293     0.079     0.000  108033.1   807149.4
  813.500     7.471     8.116     0.293     0.079     0.000  108008.5   806939.1
  814.000     7.469     8.114     0.291     0.079     0.000  107284.7   801296.7
  814.500     7.465     8.106     0.291     0.079     0.000  107170.7   800070.1
  815.000     7.460     8.101     0.290     0.079     0.000  106342.8   793362.1
  815.500     7.455     8.090     0.290     0.079     0.000  106173.6   791492.6
  816.000     7.448     8.083     0.288     0.078     0.000  105173.8   783344.2
  816.500     7.441     8.071     0.288     0.078     0.000  104987.2   781250.0
  817.000     7.434     8.063     0.286     0.078     0.000  104100.6   773919.5
  817.500     7.428     8.052     0.286     0.078     0.000  103925.2   771921.6
  818.000     7.421     8.045     0.284     0.077     0.000  102975.7   764194.6
  818.500     7.415     8.034     0.284     0.077     0.000  102834.7   762557.8
  819.000     7.410     8.028     0.282     0.076     0.000  101810.2   754415.9
  819.500     7.406     8.018     0.282     0.076     0.000  101713.6   753258.5
  820.000     7.402     8.014     0.280     0.076     0.000  100698.1   745342.4
  820.500     7.399     8.005     0.280     0.076     0.000  100641.1   744620.4
  821.000     7.396     8.002     0.278     0.075     0.000   99855.1   738532.9
  821.500     7.394     7.995     0.278     0.075     0.000   99821.6   738075.4
  822.000     7.392     7.993     0.277     0.075     0.000   99099.7   732535.3
  822.500     7.390     7.987     0.277     0.075     0.000   99077.6   732214.2
  823.000     7.389     7.985     0.275     0.074     0.000   98569.3   728298.1
  823.500     7.387     7.981     0.275     0.074     0.000   98550.2   728026.1
  824.000     7.386     7.980     0.275     0.074     0.000   98261.2   725762.6
  824.500     7.385     7.977     0.275     0.074     0.000   98243.7   725528.3
  825.000     7.384     7.976     0.275     0.074     0.000   98170.1   724891.3
  825.500     7.383     7.975     0.275     0.074     0.000   98154.1   724697.2
  826.000     7.383     7.974     0.275     0.074     0.000   98354.9   726114.6
  826.500     7.382     7.975     0.275     0.074     0.000   98332.5   725873.8
  827.000     7.381     7.974     0.276     0.075     0.000   98720.2   728648.8
  827.500     7.380     7.975     0.276     0.075     0.000   98674.2   728167.8
  828.000     7.378     7.972     0.278     0.075     0.000   99184.2   731740.5
  828.500     7.375     7.973     0.278     0.075     0.000   99092.5   730769.2
  829.000     7.371     7.969     0.279     0.075     0.000   99625.8   734324.2
  829.500     7.366     7.967     0.279     0.075     0.000   99474.2   732701.1
  830.000     7.360     7.961     0.281     0.076     0.000  100058.2   736411.0
  830.500     7.353     7.958     0.281     0.076     0.000   99850.0   734170.9
  831.000     7.345     7.949     0.283     0.077     0.000  100428.1   737666.7
  831.500     7.337     7.945     0.283     0.077     0.000  100189.0   735093.6
  832.000     7.329     7.937     0.285     0.077     0.000  100733.3   738292.3
  832.500     7.321     7.933     0.285     0.077     0.000  100502.8   735822.4
  833.000     7.315     7.926     0.286     0.078     0.000  100987.9   738686.5
  833.500     7.309     7.923     0.286     0.078     0.000  100802.4   736719.4
  834.000     7.304     7.918     0.288     0.078     0.000  101295.4   739842.1
  834.500     7.300     7.918     0.288     0.078     0.000  101168.8   738526.0
  835.000     7.297     7.915     0.289     0.078     0.000  101436.6   740201.8
  835.500     7.295     7.915     0.289     0.078     0.000  101356.6   739395.4
  836.000     7.293     7.913     0.291     0.079     0.000  102188.2   745275.9
  836.500     7.291     7.916     0.291     0.079     0.000  102102.1   744391.8
  837.000     7.288     7.912     0.293     0.079     0.000  102723.7   748605.5
  837.500     7.283     7.912     0.293     0.079     0.000  102585.3   747125.9
  838.000     7.277     7.905     0.294     0.080     0.000  103073.4   750063.0
  838.500     7.269     7.901     0.294     0.080     0.000  102846.0   747578.8
  839.000     7.259     7.890     0.296     0.081     0.000  103505.4   751353.8
  839.500     7.247     7.882     0.296     0.081     0.000  103170.2   747663.5
  840.000     7.233     7.867     0.298     0.081     0.000  103574.9   749169.5
  840.500     7.218     7.855     0.298     0.081     0.000  103149.8   744483.9
  841.000     7.201     7.837     0.299     0.081     0.000  103092.7   742359.5
  841.500     7.183     7.820     0.299     0.081     0.000  102622.2   737179.3
  842.000     7.166     7.801     0.300     0.082     0.000  102389.9   733704.4
  842.500     7.148     7.784     0.300     0.082     0.000  101922.6   728568.7
  843.000     7.131     7.765     0.300     0.082     0.000  101668.3   725037.1
  843.500     7.115     7.749     0.300     0.082     0.000  101250.0   720442.8
  844.000     7.101     7.733     0.301     0.082     0.000  101066.0   717667.1
  844.500     7.088     7.720     0.301     0.082     0.000  100732.1   713990.9
  845.000     7.077     7.708     0.301     0.082     0.000  100479.0   711082.0
  845.500     7.068     7.699     0.301     0.082     0.000  100251.5   708551.1
  846.000     7.060     7.691     0.301     0.082     0.000  100238.4   707727.9
  846.500     7.055     7.685     0.301     0.082     0.000  100110.4   706259.6
  847.000     7.051     7.681     0.303     0.082     0.000  100519.4   708730.3
  847.500     7.047     7.681     0.303     0.082     0.000  100458.2   707971.3
  848.000     7.045     7.678     0.304     0.083     0.000  101108.6   712306.0
  848.500     7.042     7.679     0.304     0.083     0.000  101068.3   711768.1
  849.000     7.040     7.677     0.307     0.084     0.000  101940.8   717653.6
  849.500     7.036     7.679     0.307     0.084     0.000  101868.0   716778.5
  850.000     7.032     7.674     0.310     0.085     0.000  103064.5   724748.1
  850.500     7.026     7.675     0.310     0.085     0.000  102906.5   722991.5
  851.000     7.018     7.667     0.314     0.086     0.000  104203.1   731308.7
  851.500     7.008     7.665     0.314     0.086     0.000  103924.3   728311.8
  852.000     6.997     7.653     0.318     0.087     0.000  105294.1   736694.8
  852.500     6.982     7.648     0.318     0.087     0.000  104878.0   732299.2
  853.000     6.967     7.631     0.323     0.088     0.000  106319.3   740704.8
  853.500     6.949     7.623     0.323     0.088     0.000  105771.2   734976.9
  854.000     6.930     7.602     0.327     0.090     0.000  107013.3   741568.9
  854.500     6.909     7.591     0.327     0.090     0.000  106367.0   734870.3
  855.000     6.888     7.568     0.332     0.091     0.000  107680.0   741665.1
  855.500     6.865     7.556     0.332     0.091     0.000  106979.4   734462.4
  856.000     6.844     7.532     0.337     0.093     0.000  108265.5   740952.9
  856.500     6.822     7.521     0.337     0.093     0.000  107565.3   733817.0
  857.000     6.802     7.499     0.342     0.094     0.000  108917.1   740827.9
  857.500     6.782     7.490     0.342     0.094     0.000  108267.5   734272.4
  858.000     6.764     7.470     0.347     0.096     0.000  109587.6   741298.9
  858.500     6.748     7.465     0.347     0.096     0.000  109031.3   735745.6
  859.000     6.734     7.449     0.352     0.097     0.000  110261.6   742515.9
  859.500     6.722     7.447     0.352     0.097     0.000  109827.4   738228.8
  860.000     6.712     7.436     0.355     0.098     0.000  110801.6   743686.1
  860.500     6.704     7.436     0.355     0.098     0.000  110503.6   740775.8
  861.000     6.698     7.429     0.358     0.099     0.000  111321.9   745602.8
  861.500     6.693     7.431     0.358     0.099     0.000  111153.7   743979.9
  862.000     6.691     7.428     0.360     0.100     0.000  111809.0   748078.7
  862.500     6.689     7.432     0.360     0.100     0.000  111752.6   747547.2
  863.000     6.689     7.432     0.360     0.100     0.000  112012.5   749292.8
  863.500     6.690     7.435     0.360     0.100     0.000  112049.4   749664.0
  864.000     6.693     7.437     0.360     0.100     0.000  112190.8   750844.1
  864.500     6.695     7.440     0.360     0.100     0.000  112294.0   751850.0
  865.000     6.699     7.444     0.360     0.100     0.000  112073.9   750748.4
  865.500     6.702     7.446     0.360     0.100     0.000  112217.7   752136.5
  866.000     6.706     7.450     0.358     0.099     0.000  111899.7   750425.5
  866.500     6.710     7.451     0.358     0.099     0.000  112046.0   751822.8
  867.000     6.713     7.455     0.357     0.099     0.000  111556.8   748882.6
  867.500     6.716     7.453     0.357     0.099     0.000  111665.3   749891.8
  868.000     6.717     7.455     0.355     0.098     0.000  111092.7   746191.6
  868.500     6.717     7.451     0.355     0.098     0.000  111126.0   746446.2
  869.000     6.716     7.449     0.353     0.098     0.000  110465.2   741864.1
  869.500     6.713     7.442     0.353     0.098     0.000  110401.8   741158.5
  870.000     6.709     7.438     0.352     0.097     0.000  109618.1   735442.4
  870.500     6.704     7.428     0.352     0.097     0.000  109460.6   733812.2
  871.000     6.697     7.420     0.350     0.097     0.000  108564.5   727094.1
  871.500     6.690     7.408     0.350     0.097     0.000  108339.2   724810.0
  872.000     6.682     7.399     0.348     0.096     0.000  107376.1   717523.7
  872.500     6.675     7.386     0.348     0.096     0.000  107125.7   715020.1
  873.000     6.667     7.377     0.346     0.096     0.000  106187.4   707940.3
  873.500     6.660     7.365     0.346     0.096     0.000  105959.7   705697.1
  874.000     6.654     7.359     0.346     0.096     0.000  105450.9   701669.4
  874.500     6.649     7.351     0.346     0.096     0.000  105280.6   700031.1
  875.000     6.646     7.347     0.345     0.095     0.000  104923.3   697289.9
  875.500     6.644     7.344     0.345     0.095     0.000  104838.9   696534.2
  876.000     6.644     7.344     0.345     0.095     0.000  104716.4   695691.1
  876.500     6.645     7.344     0.345     0.095     0.000  104728.3   695914.2
  877.000     6.648     7.348     0.344     0.095     0.000  104346.9   693688.8
  877.500     6.653     7.350     0.344     0.095     0.000  104461.2   694946.9
  878.000     6.659     7.357     0.342     0.095     0.000  104219.4   693984.7
  878.500     6.667     7.363     0.342     0.095     0.000  104424.6   696164.5
  879.000     6.676     7.373     0.342     0.094     0.000  104548.3   697926.4
  879.500     6.686     7.383     0.342     0.094     0.000  104820.3   700792.7
  880.000     6.696     7.395     0.342     0.094     0.000  104901.0   702457.9
  880.500     6.708     7.406     0.342     0.094     0.000  105208.7   705697.5
  881.000     6.719     7.418     0.340     0.094     0.000  104955.1   705161.8
  881.500     6.730     7.426     0.340     0.094     0.000  105255.3   708322.6
  882.000     6.739     7.437     0.339     0.093     0.000  105040.7   707906.1
  882.500     6.748     7.444     0.339     0.093     0.000  105283.2   710450.3
  883.000     6.755     7.451     0.338     0.093     0.000  105037.4   709528.6
  883.500     6.761     7.455     0.338     0.093     0.000  105203.8   711256.2
  884.000     6.765     7.460     0.336     0.093     0.000  104878.1   709527.1
  884.500     6.769     7.461     0.336     0.093     0.000  105004.2   710817.7
  885.000     6.774     7.466     0.336     0.092     0.000  104817.2   710000.1
  885.500     6.779     7.470     0.336     0.092     0.000  104978.3   711662.0
  886.000     6.786     7.478     0.335     0.092     0.000  104960.5   712294.3
  886.500     6.796     7.487     0.335     0.092     0.000  105238.8   715204.6
  887.000     6.809     7.501     0.334     0.092     0.000  105160.9   715990.4
  887.500     6.824     7.515     0.334     0.092     0.000  105606.3   720681.5
  888.000     6.843     7.535     0.333     0.092     0.000  105638.4   722850.8
  888.500     6.864     7.555     0.333     0.092     0.000  106235.6   729177.0
  889.000     6.886     7.580     0.331     0.091     0.000  106321.8   732185.0
  889.500     6.910     7.603     0.331     0.091     0.000  106996.0   739384.6
  890.000     6.934     7.629     0.330     0.091     0.000  107159.7   743061.0
  890.500     6.957     7.651     0.330     0.091     0.000  107798.0   749959.0
  891.000     6.978     7.674     0.329     0.090     0.000  107807.7   752269.2
  891.500     6.996     7.690     0.329     0.090     0.000  108296.2   757639.8
  892.000     7.010     7.706     0.328     0.090     0.000  108346.5   759538.4
  892.500     7.020     7.715     0.328     0.090     0.000  108599.3   762404.6
  893.000     7.026     7.721     0.327     0.090     0.000  108435.2   761829.2
  893.500     7.026     7.720     0.327     0.090     0.000  108428.8   761861.7
  894.000     7.023     7.716     0.327     0.090     0.000  108155.6   759528.1
  894.500     7.015     7.706     0.327     0.090     0.000  107929.9   757108.1
  895.000     7.004     7.694     0.327     0.090     0.000  107647.5   753940.9
  895.500     6.990     7.680     0.327     0.090     0.000  107288.3   749983.1
  896.000     6.975     7.663     0.326     0.090     0.000  106745.9   744600.1
  896.500     6.960     7.645     0.326     0.090     0.000  106362.9   740295.7
  897.000     6.945     7.629     0.326     0.090     0.000  105984.1   736066.8
  897.500     6.931     7.613     0.326     0.090     0.000  105665.3   732381.8
  898.000     6.919     7.600     0.326     0.089     0.000  105176.9   727720.3
  898.500     6.909     7.588     0.326     0.089     0.000  104990.1   725413.1
  899.000     6.902     7.580     0.326     0.089     0.000  104936.0   724311.9
  899.500     6.898     7.576     0.326     0.089     0.000  104905.0   723679.2
