    Time      Ur        Uinf      Ct_adm    a        Yaw(deg)  Thrust     Power  
    0.000     5.259     5.259     0.507     0.149     0.000  107325.9   564456.2
    0.500     5.298     6.225     0.507     0.149     0.000  108920.0   577024.0
    1.000     5.335     6.269     0.515     0.152     0.000  112853.2   602065.8
    1.500     5.369     6.329     0.515     0.152     0.000  114335.5   613863.3
    2.000     5.401     6.367     0.522     0.154     0.000  118183.0   638321.3
    2.500     5.430     6.421     0.522     0.154     0.000  119489.7   648790.7
    3.000     5.456     6.452     0.529     0.157     0.000  123205.3   672256.8
    3.500     5.480     6.500     0.529     0.157     0.000  124322.0   681255.4
    4.000     5.502     6.526     0.537     0.160     0.000  127901.2   703684.2
    4.500     5.521     6.570     0.537     0.160     0.000  128845.6   711355.8
    5.000     5.539     6.592     0.541     0.161     0.000  131281.4   727225.4
    5.500     5.556     6.624     0.541     0.161     0.000  132104.9   734012.1
    6.000     5.573     6.644     0.539     0.161     0.000  132280.5   737163.7
    6.500     5.589     6.659     0.539     0.161     0.000  133052.6   743662.5
    7.000     5.605     6.678     0.539     0.160     0.000  133577.2   748745.8
    7.500     5.621     6.695     0.539     0.160     0.000  134278.9   754792.8
    8.000     5.636     6.713     0.538     0.160     0.000  134788.2   759691.5
    8.500     5.651     6.729     0.538     0.160     0.000  135398.4   765081.4
    9.000     5.664     6.745     0.538     0.160     0.000  135922.5   769870.8
    9.500     5.676     6.760     0.538     0.160     0.000  136421.7   774387.9
   10.000     5.688     6.773     0.539     0.160     0.000  137018.9   779312.5
   10.500     5.698     6.786     0.539     0.160     0.000  137398.7   782829.0
   11.000     5.706     6.796     0.540     0.161     0.000  138123.9   788156.9
   11.500     5.713     6.808     0.540     0.161     0.000  138389.5   790672.6
   12.000     5.720     6.815     0.541     0.161     0.000  139256.5   796488.2
   12.500     5.724     6.826     0.541     0.161     0.000  139424.5   798123.3
   13.000     5.728     6.831     0.544     0.162     0.000  140388.5   804214.8
   13.500     5.731     6.841     0.544     0.162     0.000  140481.9   805157.8
   14.000     5.734     6.844     0.546     0.163     0.000  141445.1   811023.9
   14.500     5.735     6.853     0.546     0.163     0.000  141489.2   811488.5
   15.000     5.737     6.854     0.548     0.164     0.000  142326.8   816478.6
   15.500     5.737     6.861     0.548     0.164     0.000  142350.3   816711.5
   16.000     5.738     6.862     0.549     0.164     0.000  142944.4   820229.6
   16.500     5.739     6.867     0.549     0.164     0.000  142978.1   820505.7
   17.000     5.740     6.868     0.550     0.165     0.000  143242.9   822153.6
   17.500     5.741     6.871     0.550     0.165     0.000  143312.6   822717.0
   18.000     5.742     6.873     0.549     0.164     0.000  143207.1   822333.6
   18.500     5.744     6.874     0.549     0.164     0.000  143321.4   823285.0
   19.000     5.747     6.877     0.548     0.164     0.000  142844.3   820871.8
   19.500     5.749     6.875     0.548     0.164     0.000  142984.8   822069.1
   20.000     5.752     6.878     0.545     0.163     0.000  142153.2   817634.2
   20.500     5.754     6.874     0.545     0.163     0.000  142273.4   818673.9
   21.000     5.756     6.875     0.542     0.162     0.000  141102.0   812128.0
   21.500     5.756     6.867     0.542     0.162     0.000  141139.0   812448.0
   22.000     5.755     6.865     0.538     0.160     0.000  139637.9   803650.3
   22.500     5.753     6.851     0.538     0.160     0.000  139529.0   802695.7
   23.000     5.748     6.845     0.534     0.159     0.000  137717.7   791601.9
   23.500     5.741     6.825     0.534     0.159     0.000  137414.9   788959.9
   24.000     5.732     6.814     0.530     0.157     0.000  135333.9   775723.4
   24.500     5.720     6.787     0.530     0.157     0.000  134809.9   771174.2
   25.000     5.706     6.770     0.525     0.156     0.000  132522.1   756151.0
   25.500     5.689     6.737     0.525     0.156     0.000  131775.1   749702.5
   26.000     5.670     6.714     0.521     0.154     0.000  129356.8   733410.4
   26.500     5.648     6.677     0.521     0.154     0.000  128414.4   725332.0
   27.000     5.625     6.648     0.517     0.153     0.000  125946.9   708395.9
   27.500     5.600     6.608     0.517     0.153     0.000  124861.5   699172.7
   28.000     5.573     6.576     0.513     0.151     0.000  122429.7   682284.7
   28.500     5.546     6.534     0.513     0.151     0.000  121271.1   672538.7
   29.000     5.518     6.501     0.510     0.150     0.000  118966.7   656435.1
   29.500     5.490     6.459     0.510     0.150     0.000  117814.8   646847.2
   30.000     5.463     6.428     0.507     0.149     0.000  115736.2   632294.6
   30.500     5.438     6.390     0.507     0.149     0.000  114678.8   623590.7
   31.000     5.414     6.362     0.505     0.148     0.000  112931.4   611386.9
   31.500     5.393     6.331     0.505     0.148     0.000  112057.9   604290.0
   32.000     5.374     6.309     0.503     0.148     0.000  110741.5   595172.6
   32.500     5.360     6.288     0.503     0.148     0.000  110131.7   590318.2
   33.000     5.350     6.276     0.502     0.147     0.000  109323.8   584865.6
   33.500     5.344     6.266     0.502     0.147     0.000  109040.3   582748.0
   34.000     5.344     6.265     0.501     0.147     0.000  108778.3   581270.7
   34.500     5.348     6.269     0.501     0.147     0.000  108854.1   582146.6
   35.000     5.357     6.280     0.501     0.147     0.000  109118.0   584561.5
   35.500     5.371     6.296     0.501     0.147     0.000  109546.0   588365.2
   36.000     5.389     6.317     0.502     0.147     0.000  110256.5   594160.4
   36.500     5.410     6.343     0.502     0.147     0.000  110987.9   600478.3
   37.000     5.435     6.372     0.502     0.147     0.000  112013.9   608744.4
   37.500     5.461     6.404     0.502     0.147     0.000  112965.1   616866.8
   38.000     5.488     6.436     0.503     0.147     0.000  114145.4   626437.2
   38.500     5.516     6.470     0.503     0.147     0.000  115218.0   635521.5
   39.000     5.543     6.502     0.503     0.148     0.000  116398.7   645248.9
   39.500     5.570     6.534     0.503     0.148     0.000  117505.6   654547.8
   40.000     5.596     6.565     0.503     0.148     0.000  118575.2   663584.9
   40.500     5.621     6.594     0.503     0.148     0.000  119662.8   672649.8
   41.000     5.645     6.622     0.503     0.147     0.000  120569.0   680614.3
   41.500     5.668     6.647     0.503     0.147     0.000  121626.8   689383.7
   42.000     5.690     6.674     0.502     0.147     0.000  122373.3   696347.8
   42.500     5.713     6.697     0.502     0.147     0.000  123423.1   705059.2
   43.000     5.735     6.723     0.500     0.147     0.000  124048.2   711369.8
   43.500     5.757     6.746     0.500     0.147     0.000  125120.7   720342.5
   44.000     5.780     6.773     0.499     0.146     0.000  125671.3   726384.1
   44.500     5.804     6.796     0.499     0.146     0.000  126778.4   735773.8
   45.000     5.827     6.824     0.497     0.145     0.000  127291.4   741785.9
   45.500     5.852     6.848     0.497     0.145     0.000  128409.0   751423.1
   46.000     5.876     6.876     0.496     0.145     0.000  128901.9   757410.9
   46.500     5.900     6.900     0.496     0.145     0.000  129968.1   766777.0
   47.000     5.922     6.926     0.494     0.144     0.000  130436.1   772504.6
   47.500     5.944     6.947     0.494     0.144     0.000  131367.0   780845.4
   48.000     5.963     6.970     0.493     0.144     0.000  131786.8   785904.1
   48.500     5.981     6.987     0.493     0.144     0.000  132506.8   792490.1
   49.000     5.995     7.004     0.492     0.144     0.000  132849.3   796476.9
   49.500     6.007     7.016     0.492     0.144     0.000  133323.5   800916.6
   50.000     6.017     7.027     0.492     0.144     0.000  133573.5   803655.4
   50.500     6.023     7.034     0.492     0.144     0.000  133825.1   806091.8
   51.000     6.028     7.040     0.492     0.144     0.000  133991.7   807746.2
   51.500     6.032     7.044     0.492     0.144     0.000  134092.1   808794.1
   52.000     6.034     7.046     0.492     0.144     0.000  134196.1   809728.6
   52.500     6.036     7.049     0.492     0.144     0.000  134235.6   810201.5
   53.000     6.037     7.051     0.492     0.144     0.000  134280.2   810695.8
   53.500     6.039     7.053     0.492     0.144     0.000  134336.1   811294.4
   54.000     6.042     7.056     0.492     0.144     0.000  134292.0   811353.3
   54.500     6.045     7.059     0.492     0.144     0.000  134406.0   812453.6
   55.000     6.048     7.063     0.491     0.143     0.000  134225.9   811840.6
   55.500     6.052     7.065     0.491     0.143     0.000  134394.0   813402.5
   56.000     6.056     7.070     0.490     0.143     0.000  134040.9   811807.8
   56.500     6.060     7.070     0.490     0.143     0.000  134219.6   813431.0
   57.000     6.064     7.074     0.488     0.142     0.000  133684.9   810620.9
   57.500     6.066     7.072     0.488     0.142     0.000  133809.9   811710.9
   58.000     6.067     7.073     0.486     0.142     0.000  133111.3   807590.9
   58.500     6.067     7.067     0.486     0.142     0.000  133122.2   807595.7
   59.000     6.064     7.064     0.484     0.141     0.000  132293.3   802230.4
   59.500     6.060     7.053     0.484     0.141     0.000  132153.8   800832.5
   60.000     6.054     7.046     0.482     0.140     0.000  131235.7   794436.6
   60.500     6.046     7.031     0.482     0.140     0.000  130940.2   791612.0
   61.000     6.036     7.020     0.481     0.140     0.000  129975.3   784505.1
   61.500     6.025     7.003     0.481     0.140     0.000  129544.1   780471.5
   62.000     6.012     6.988     0.479     0.139     0.000  128576.0   773037.8
   62.500     5.999     6.969     0.479     0.139     0.000  128045.4   768152.7
   63.000     5.985     6.953     0.478     0.139     0.000  127123.2   760832.3
   63.500     5.971     6.934     0.478     0.139     0.000  126536.1   755503.1
   64.000     5.956     6.917     0.478     0.139     0.000  125721.9   748809.0
   64.500     5.942     6.898     0.478     0.139     0.000  125121.1   743430.8
   65.000     5.928     6.882     0.478     0.139     0.000  124490.1   737930.6
   65.500     5.914     6.866     0.478     0.139     0.000  123915.4   732854.8
   66.000     5.901     6.851     0.478     0.139     0.000  123542.8   729086.9
   66.500     5.890     6.839     0.478     0.139     0.000  123031.1   724622.7
   67.000     5.879     6.827     0.479     0.139     0.000  122968.6   722967.4
   67.500     5.870     6.819     0.479     0.139     0.000  122555.2   719401.1
   68.000     5.862     6.811     0.481     0.140     0.000  122808.0   719956.2
   68.500     5.856     6.808     0.481     0.140     0.000  122524.5   717546.1
   69.000     5.852     6.803     0.483     0.140     0.000  123042.1   720075.8
   69.500     5.850     6.806     0.483     0.140     0.000  122909.0   718991.4
   70.000     5.849     6.806     0.485     0.141     0.000  123593.4   722947.9
   70.500     5.850     6.813     0.485     0.141     0.000  123608.1   723166.9
   71.000     5.853     6.816     0.487     0.142     0.000  124336.0   727778.7
   71.500     5.857     6.825     0.487     0.142     0.000  124464.5   729003.3
   72.000     5.862     6.831     0.488     0.142     0.000  125115.0   733413.2
   72.500     5.867     6.840     0.488     0.142     0.000  125294.9   735087.1
   73.000     5.872     6.846     0.489     0.143     0.000  125775.1   738526.3
   73.500     5.876     6.853     0.489     0.143     0.000  125931.5   739978.5
   74.000     5.879     6.857     0.489     0.143     0.000  126195.7   741949.2
   74.500     5.881     6.861     0.489     0.143     0.000  126262.5   742586.8
   75.000     5.882     6.861     0.490     0.143     0.000  126318.3   742968.2
   75.500     5.880     6.860     0.490     0.143     0.000  126251.3   742410.4
   76.000     5.877     6.856     0.490     0.143     0.000  126150.9   741434.1
   76.500     5.872     6.851     0.490     0.143     0.000  125929.5   739519.4
   77.000     5.866     6.843     0.490     0.143     0.000  125747.7   737617.2
   77.500     5.857     6.834     0.490     0.143     0.000  125366.4   734320.7
   78.000     5.847     6.823     0.491     0.143     0.000  125176.1   731938.0
   78.500     5.835     6.811     0.491     0.143     0.000  124635.7   727287.7
   79.000     5.822     6.795     0.492     0.144     0.000  124495.6   724785.8
   79.500     5.806     6.781     0.492     0.144     0.000  123800.1   718832.3
   80.000     5.790     6.761     0.494     0.144     0.000  123756.5   716500.5
   80.500     5.771     6.745     0.494     0.144     0.000  122914.6   709335.5
   81.000     5.751     6.722     0.497     0.145     0.000  123005.9   707426.4
   81.500     5.730     6.704     0.497     0.145     0.000  122036.5   699224.9
   82.000     5.707     6.678     0.501     0.147     0.000  122296.6   697991.9
   82.500     5.684     6.661     0.501     0.147     0.000  121230.7   689035.1
   83.000     5.660     6.633     0.505     0.148     0.000  121686.2   688715.7
   83.500     5.635     6.616     0.505     0.148     0.000  120566.6   679372.9
   84.000     5.610     6.587     0.510     0.150     0.000  121223.3   680103.8
   84.500     5.585     6.572     0.510     0.150     0.000  120098.6   670782.4
   85.000     5.561     6.543     0.516     0.152     0.000  120929.0   672515.0
   85.500     5.537     6.531     0.516     0.152     0.000  119848.2   663610.3
   86.000     5.515     6.504     0.522     0.154     0.000  120799.8   666151.8
   86.500     5.492     6.494     0.522     0.154     0.000  119806.0   657999.2
   87.000     5.472     6.470     0.528     0.156     0.000  120823.1   661121.1
   87.500     5.452     6.462     0.528     0.156     0.000  119947.0   653947.6
   88.000     5.434     6.441     0.533     0.158     0.000  120967.6   657359.8
   88.500     5.417     6.436     0.533     0.158     0.000  120225.1   651268.0
   89.000     5.402     6.418     0.538     0.160     0.000  121186.1   654640.9
   89.500     5.387     6.415     0.538     0.160     0.000  120577.1   649607.3
   90.000     5.375     6.399     0.542     0.162     0.000  121433.1   652673.3
   90.500     5.363     6.397     0.542     0.162     0.000  120943.0   648560.0
   91.000     5.352     6.384     0.549     0.164     0.000  122868.4   657547.1
   91.500     5.340     6.390     0.549     0.164     0.000  122430.1   653795.2
   92.000     5.330     6.377     0.556     0.167     0.000  124377.1   662890.8
   92.500     5.318     6.384     0.556     0.167     0.000  123962.1   659274.5
   93.000     5.308     6.371     0.563     0.169     0.000  125904.3   668274.7
   93.500     5.296     6.377     0.563     0.169     0.000  125486.7   664603.6
   94.000     5.285     6.364     0.570     0.172     0.000  127400.0   673341.2
   94.500     5.273     6.369     0.570     0.172     0.000  126956.5   669464.3
   95.000     5.262     6.355     0.575     0.174     0.000  128448.2   675850.2
   95.500     5.249     6.357     0.575     0.174     0.000  127969.3   671738.3
   96.000     5.237     6.342     0.579     0.176     0.000  128790.4   674501.9
   96.500     5.225     6.338     0.579     0.176     0.000  128273.3   670173.7
   97.000     5.212     6.323     0.582     0.177     0.000  128669.0   670644.6
   97.500     5.199     6.315     0.582     0.177     0.000  128100.0   666013.9
   98.000     5.186     6.299     0.584     0.177     0.000  128132.3   664509.8
   98.500     5.172     6.288     0.584     0.177     0.000  127500.9   659492.1
   99.000     5.159     6.271     0.585     0.178     0.000  127332.5   656847.9
   99.500     5.144     6.258     0.585     0.178     0.000  126636.9   651413.2
  100.000     5.129     6.240     0.587     0.179     0.000  126640.8   649547.5
  100.500     5.113     6.227     0.587     0.179     0.000  125881.9   643682.2
  101.000     5.098     6.208     0.588     0.179     0.000  125444.8   639462.1
  101.500     5.082     6.191     0.588     0.179     0.000  124666.7   633494.4
  102.000     5.066     6.172     0.588     0.179     0.000  123709.1   626668.4
  102.500     5.050     6.151     0.588     0.179     0.000  122973.2   621062.7
  103.000     5.036     6.134     0.588     0.179     0.000  122420.1   616483.1
  103.500     5.022     6.118     0.588     0.179     0.000  121758.1   611476.3
  104.000     5.010     6.103     0.587     0.179     0.000  120772.9   605018.5
  104.500     4.999     6.086     0.587     0.179     0.000  120253.9   601129.7
  105.000     4.990     6.075     0.587     0.179     0.000  119916.3   598366.9
  105.500     4.983     6.068     0.587     0.179     0.000  119564.1   595764.2
  106.000     4.978     6.062     0.586     0.178     0.000  118850.9   591622.6
  106.500     4.975     6.055     0.586     0.178     0.000  118713.9   590657.0
  107.000     4.975     6.054     0.583     0.177     0.000  117861.3   586396.8
  107.500     4.978     6.050     0.583     0.177     0.000  117954.2   587170.3
  108.000     4.983     6.056     0.581     0.176     0.000  117336.7   584647.9
  108.500     4.990     6.057     0.581     0.176     0.000  117638.5   586999.8
  109.000     4.999     6.068     0.577     0.175     0.000  116978.5   584747.3
  109.500     5.010     6.072     0.577     0.175     0.000  117459.7   588457.5
  110.000     5.022     6.087     0.574     0.173     0.000  116795.1   586559.9
  110.500     5.036     6.093     0.574     0.173     0.000  117416.1   591326.4
  111.000     5.051     6.111     0.569     0.172     0.000  116676.6   589306.9
  111.500     5.067     6.118     0.569     0.172     0.000  117402.3   594848.3
  112.000     5.083     6.137     0.565     0.170     0.000  116745.8   593397.0
  112.500     5.100     6.145     0.565     0.170     0.000  117546.1   599465.6
  113.000     5.117     6.165     0.560     0.168     0.000  116897.3   598121.4
  113.500     5.134     6.173     0.560     0.168     0.000  117753.2   604574.4
  114.000     5.152     6.194     0.555     0.166     0.000  117032.5   602895.8
  114.500     5.170     6.202     0.555     0.166     0.000  117925.6   609627.1
  115.000     5.187     6.223     0.550     0.165     0.000  117314.8   608533.5
  115.500     5.205     6.232     0.550     0.165     0.000  118206.5   615295.4
  116.000     5.222     6.252     0.549     0.164     0.000  118549.8   619124.0
  116.500     5.239     6.268     0.549     0.164     0.000  119361.1   625328.0
  117.000     5.254     6.286     0.543     0.162     0.000  118382.2   621981.4
  117.500     5.269     6.288     0.543     0.162     0.000  119081.9   627386.3
  118.000     5.281     6.303     0.539     0.160     0.000  118164.1   624019.2
  118.500     5.292     6.303     0.539     0.160     0.000  118698.1   628168.6
  119.000     5.301     6.314     0.534     0.159     0.000  117558.2   623167.5
  119.500     5.308     6.310     0.534     0.159     0.000  117912.5   625926.6
  120.000     5.314     6.316     0.531     0.157     0.000  117091.0   622171.1
  120.500     5.317     6.311     0.531     0.157     0.000  117273.5   623593.0
  121.000     5.319     6.314     0.524     0.155     0.000  115389.8   613815.5
  121.500     5.321     6.299     0.524     0.155     0.000  115469.7   614467.1
  122.000     5.322     6.300     0.520     0.154     0.000  114163.2   607594.0
  122.500     5.323     6.289     0.520     0.154     0.000  114161.8   607653.8
  123.000     5.322     6.289     0.516     0.152     0.000  112611.7   599367.5
  123.500     5.322     6.276     0.516     0.152     0.000  112560.9   599088.4
  124.000     5.321     6.275     0.511     0.150     0.000  110958.9   590460.1
  124.500     5.321     6.262     0.511     0.150     0.000  110868.7   589902.3
  125.000     5.319     6.260     0.507     0.149     0.000  109491.3   582393.9
  125.500     5.317     6.247     0.507     0.149     0.000  109358.5   581501.1
  126.000     5.315     6.244     0.503     0.147     0.000  107922.1   573575.0
  126.500     5.312     6.230     0.503     0.147     0.000  107761.4   572437.3
  127.000     5.309     6.226     0.499     0.146     0.000  106404.2   564865.2
  127.500     5.306     6.212     0.499     0.146     0.000  106242.7   563678.1
  128.000     5.302     6.208     0.495     0.145     0.000  105041.7   556943.6
  128.500     5.299     6.196     0.495     0.145     0.000  104917.9   556000.2
  129.000     5.297     6.193     0.492     0.143     0.000  103740.0   549496.6
  129.500     5.296     6.183     0.492     0.143     0.000  103699.6   549155.8
  130.000     5.295     6.182     0.488     0.142     0.000  102739.8   544021.0
  130.500     5.296     6.175     0.488     0.142     0.000  102813.9   544530.0
  131.000     5.298     6.178     0.485     0.141     0.000  102060.0   540759.5
  131.500     5.302     6.175     0.485     0.141     0.000  102262.5   542237.5
  132.000     5.307     6.181     0.483     0.141     0.000  101855.4   540596.4
  132.500     5.314     6.183     0.483     0.141     0.000  102175.6   542975.4
  133.000     5.322     6.192     0.481     0.140     0.000  101967.3   542645.3
  133.500     5.331     6.197     0.481     0.140     0.000  102378.2   545737.9
  134.000     5.340     6.208     0.479     0.139     0.000  102301.2   546294.3
  134.500     5.350     6.216     0.479     0.139     0.000  102761.5   549799.4
  135.000     5.361     6.228     0.478     0.139     0.000  102815.1   551144.3
  135.500     5.371     6.236     0.478     0.139     0.000  103274.9   554683.7
  136.000     5.381     6.248     0.477     0.138     0.000  103417.0   556476.2
  136.500     5.390     6.256     0.477     0.138     0.000  103827.3   559664.5
  137.000     5.399     6.266     0.476     0.138     0.000  103838.4   560604.9
  137.500     5.406     6.272     0.476     0.138     0.000  104162.3   563140.0
  138.000     5.413     6.279     0.475     0.138     0.000  104159.5   563768.3
  138.500     5.417     6.283     0.475     0.138     0.000  104368.7   565405.6
  139.000     5.421     6.286     0.474     0.138     0.000  104353.7   565656.9
  139.500     5.422     6.287     0.474     0.138     0.000  104431.6   566242.8
  140.000     5.422     6.287     0.474     0.137     0.000  104353.8   565796.4
  140.500     5.420     6.283     0.474     0.137     0.000  104294.7   565267.9
  141.000     5.416     6.279     0.474     0.137     0.000  104129.2   563973.7
  141.500     5.411     6.272     0.474     0.137     0.000  103934.7   562339.2
  142.000     5.403     6.264     0.474     0.137     0.000  103755.6   560608.7
  142.500     5.394     6.254     0.474     0.137     0.000  103430.9   557918.4
  143.000     5.384     6.242     0.475     0.138     0.000  103214.7   555658.8
  143.500     5.371     6.229     0.475     0.138     0.000  102773.5   552040.8
  144.000     5.358     6.214     0.476     0.138     0.000  102498.5   549202.8
  144.500     5.344     6.199     0.476     0.138     0.000  101967.6   544893.5
  145.000     5.329     6.181     0.477     0.138     0.000  101685.7   541860.3
  145.500     5.313     6.166     0.477     0.138     0.000  101105.6   537199.9
  146.000     5.298     6.148     0.477     0.138     0.000  100715.2   533568.3
  146.500     5.283     6.132     0.477     0.138     0.000  100144.4   529028.4
  147.000     5.268     6.115     0.478     0.139     0.000   99751.3   525528.9
  147.500     5.255     6.101     0.478     0.139     0.000   99253.4   521607.9
  148.000     5.244     6.088     0.478     0.139     0.000   98828.2   518247.9
  148.500     5.235     6.077     0.478     0.139     0.000   98465.5   515425.7
  149.000     5.228     6.069     0.478     0.139     0.000   98137.1   513020.7
  149.500     5.223     6.064     0.478     0.139     0.000   97954.9   511641.0
  150.000     5.222     6.062     0.477     0.138     0.000   97729.8   510307.4
  150.500     5.223     6.062     0.477     0.138     0.000   97751.1   510543.6
  151.000     5.227     6.067     0.477     0.138     0.000   97742.4   510895.2
  151.500     5.234     6.073     0.477     0.138     0.000   97962.9   512711.1
  152.000     5.243     6.084     0.476     0.138     0.000   98114.3   514399.1
  152.500     5.254     6.096     0.476     0.138     0.000   98501.4   517535.1
  153.000     5.267     6.111     0.476     0.138     0.000   98836.2   520562.0
  153.500     5.281     6.126     0.476     0.138     0.000   99337.3   524598.1
  154.000     5.296     6.143     0.475     0.138     0.000   99715.3   528068.0
  154.500     5.311     6.159     0.475     0.138     0.000  100272.3   532541.5
  155.000     5.326     6.177     0.475     0.138     0.000  100829.0   537023.9
  155.500     5.341     6.194     0.475     0.138     0.000  101383.7   541476.0
  156.000     5.355     6.210     0.475     0.138     0.000  101888.5   545613.1
  156.500     5.368     6.226     0.475     0.138     0.000  102395.0   549690.7
  157.000     5.381     6.240     0.475     0.138     0.000  102868.3   553498.4
  157.500     5.392     6.253     0.475     0.138     0.000  103288.0   556904.9
  158.000     5.402     6.264     0.475     0.138     0.000  103744.8   560380.9
  158.500     5.410     6.274     0.475     0.138     0.000  104044.8   562853.4
  159.000     5.416     6.282     0.476     0.138     0.000  104509.9   566050.9
  159.500     5.421     6.289     0.476     0.138     0.000  104666.7   567380.3
  160.000     5.424     6.293     0.478     0.139     0.000  105191.6   570515.3
  160.500     5.424     6.297     0.478     0.139     0.000  105196.8   570608.7
  161.000     5.423     6.296     0.480     0.139     0.000  105772.0   573610.5
  161.500     5.420     6.297     0.480     0.139     0.000  105640.6   572569.7
  162.000     5.416     6.292     0.482     0.140     0.000  106299.3   575674.6
  162.500     5.410     6.292     0.482     0.140     0.000  106068.5   573800.2
  163.000     5.403     6.285     0.485     0.141     0.000  106513.8   575527.0
  163.500     5.396     6.282     0.485     0.141     0.000  106244.0   573326.3
  164.000     5.390     6.275     0.488     0.142     0.000  106895.8   576129.6
  164.500     5.383     6.274     0.488     0.142     0.000  106635.5   574016.4
  165.000     5.377     6.268     0.491     0.143     0.000  107438.0   577727.2
  165.500     5.372     6.270     0.491     0.143     0.000  107225.1   576025.6
  166.000     5.368     6.266     0.495     0.145     0.000  108188.4   580785.0
  166.500     5.365     6.272     0.495     0.145     0.000  108040.8   579640.8
  167.000     5.363     6.269     0.499     0.146     0.000  109254.7   585947.0
  167.500     5.362     6.279     0.499     0.146     0.000  109165.0   585292.4
  168.000     5.361     6.278     0.503     0.148     0.000  110435.6   592048.9
  168.500     5.360     6.288     0.503     0.148     0.000  110383.9   591706.0
  169.000     5.360     6.288     0.507     0.149     0.000  111650.4   598501.0
  169.500     5.360     6.299     0.507     0.149     0.000  111607.4   598217.8
  170.000     5.360     6.298     0.511     0.150     0.000  112793.3   604543.0
  170.500     5.359     6.307     0.511     0.150     0.000  112729.4   604069.9
  171.000     5.357     6.306     0.515     0.152     0.000  113947.9   610448.8
  171.500     5.355     6.313     0.515     0.152     0.000  113834.0   609547.1
  172.000     5.352     6.310     0.519     0.153     0.000  114898.1   614905.6
  172.500     5.347     6.315     0.519     0.153     0.000  114718.5   613452.1
  173.000     5.343     6.309     0.523     0.154     0.000  115664.9   617957.6
  173.500     5.337     6.312     0.523     0.154     0.000  115412.2   615898.1
  174.000     5.330     6.304     0.526     0.156     0.000  116266.5   619686.2
  174.500     5.322     6.304     0.526     0.156     0.000  115942.4   617045.6
  175.000     5.314     6.294     0.530     0.157     0.000  116804.1   620672.7
  175.500     5.304     6.293     0.530     0.157     0.000  116415.1   617522.5
  176.000     5.295     6.282     0.534     0.159     0.000  117241.5   620801.4
  176.500     5.285     6.280     0.534     0.159     0.000  116799.9   617260.6
  177.000     5.275     6.268     0.538     0.160     0.000  117619.3   620390.4
  177.500     5.264     6.266     0.538     0.160     0.000  117134.9   616555.2
  178.000     5.253     6.253     0.542     0.161     0.000  117951.9   619591.4
  178.500     5.242     6.251     0.542     0.161     0.000  117428.8   615506.0
  179.000     5.230     6.238     0.545     0.163     0.000  118070.8   617553.9
  179.500     5.219     6.234     0.545     0.163     0.000  117515.1   613268.0
  180.000     5.207     6.220     0.549     0.164     0.000  118183.9   615399.8
  180.500     5.195     6.216     0.549     0.164     0.000  117598.6   610931.5
  181.000     5.183     6.202     0.554     0.166     0.000  118669.9   615106.3
  181.500     5.171     6.201     0.554     0.166     0.000  118056.3   610459.9
  182.000     5.159     6.187     0.558     0.168     0.000  118705.3   612414.9
  182.500     5.147     6.184     0.558     0.168     0.000  118105.8   607912.4
  183.000     5.136     6.170     0.562     0.169     0.000  118905.6   610712.6
  183.500     5.125     6.169     0.562     0.169     0.000  118341.9   606503.7
  184.000     5.115     6.157     0.567     0.171     0.000  119215.1   609773.5
  184.500     5.105     6.157     0.567     0.171     0.000  118701.8   605945.1
  185.000     5.096     6.146     0.572     0.173     0.000  119786.4   610379.1
  185.500     5.086     6.148     0.572     0.173     0.000  119316.5   606851.1
  186.000     5.077     6.137     0.577     0.175     0.000  120713.5   612894.1
  186.500     5.068     6.142     0.577     0.175     0.000  120260.4   609444.6
  187.000     5.059     6.131     0.583     0.177     0.000  121578.1   615013.6
  187.500     5.049     6.134     0.583     0.177     0.000  121122.8   611493.7
  188.000     5.039     6.122     0.589     0.179     0.000  122712.7   618322.1
  188.500     5.028     6.127     0.589     0.179     0.000  122232.4   614568.3
  189.000     5.017     6.115     0.595     0.182     0.000  123869.5   621503.3
  189.500     5.006     6.120     0.595     0.182     0.000  123377.4   617644.0
  190.000     4.996     6.107     0.602     0.184     0.000  125007.6   624525.2
  190.500     4.986     6.113     0.602     0.184     0.000  124551.6   620968.0
  191.000     4.977     6.103     0.608     0.187     0.000  126234.2   628301.6
  191.500     4.970     6.112     0.608     0.187     0.000  125874.0   625565.3
  192.000     4.965     6.106     0.614     0.189     0.000  127665.1   633848.3
  192.500     4.961     6.121     0.614     0.189     0.000  127436.9   632264.6
  193.000     4.961     6.120     0.620     0.192     0.000  129353.1   641659.5
  193.500     4.961     6.138     0.620     0.192     0.000  129241.8   641104.5
  194.000     4.962     6.140     0.626     0.194     0.000  131249.1   651298.6
  194.500     4.964     6.161     0.626     0.194     0.000  131203.5   651273.6
  195.000     4.966     6.164     0.632     0.197     0.000  133252.1   661749.2
  195.500     4.967     6.184     0.632     0.197     0.000  133233.3   661815.5
  196.000     4.969     6.186     0.638     0.199     0.000  135310.0   672348.5
  196.500     4.970     6.205     0.638     0.199     0.000  135333.9   672547.1
  197.000     4.971     6.207     0.644     0.202     0.000  137483.4   683439.3
  197.500     4.972     6.227     0.644     0.202     0.000  137613.4   684264.6
  198.000     4.975     6.231     0.649     0.204     0.000  139911.1   696127.5
  198.500     4.979     6.255     0.649     0.204     0.000  140216.4   698168.3
  199.000     4.985     6.262     0.652     0.205     0.000  141485.1   705355.6
  199.500     4.993     6.280     0.652     0.205     0.000  142039.7   709249.4
  200.000     5.004     6.293     0.652     0.205     0.000  142943.5   715225.5
  200.500     5.016     6.310     0.652     0.205     0.000  143726.5   720872.5
  201.000     5.029     6.327     0.652     0.205     0.000  144389.7   726158.2
  201.500     5.044     6.344     0.652     0.205     0.000  145320.6   732985.4
  202.000     5.059     6.363     0.650     0.204     0.000  145747.1   737363.7
  202.500     5.075     6.378     0.650     0.204     0.000  146720.2   744586.0
  203.000     5.090     6.397     0.647     0.203     0.000  146461.6   745500.8
  203.500     5.105     6.405     0.647     0.203     0.000  147392.1   752478.5
  204.000     5.119     6.423     0.644     0.202     0.000  146977.4   752418.1
  204.500     5.133     6.429     0.644     0.202     0.000  147792.8   758585.4
  205.000     5.145     6.444     0.640     0.200     0.000  147194.5   757269.4
  205.500     5.156     6.446     0.640     0.200     0.000  147867.8   762403.7
  206.000     5.166     6.458     0.637     0.199     0.000  147112.5   759948.5
  206.500     5.175     6.458     0.637     0.199     0.000  147662.2   764175.0
  207.000     5.183     6.469     0.634     0.197     0.000  146881.1   761345.5
  207.500     5.192     6.468     0.634     0.197     0.000  147358.4   765043.8
  208.000     5.199     6.478     0.630     0.196     0.000  146487.2   761655.6
  208.500     5.208     6.477     0.630     0.196     0.000  146966.4   765386.6
  209.000     5.216     6.487     0.627     0.195     0.000  146124.6   762240.4
  209.500     5.226     6.488     0.627     0.195     0.000  146675.8   766539.5
  210.000     5.236     6.501     0.624     0.194     0.000  146380.1   766488.3
  210.500     5.248     6.507     0.624     0.194     0.000  147039.8   771634.3
  211.000     5.260     6.523     0.619     0.191     0.000  145585.4   765787.6
  211.500     5.275     6.522     0.619     0.191     0.000  146416.5   772288.2
  212.000     5.290     6.541     0.615     0.190     0.000  145897.1   771764.8
  212.500     5.306     6.550     0.615     0.190     0.000  146853.6   779273.5
  213.000     5.323     6.571     0.611     0.188     0.000  146126.2   777893.6
  213.500     5.342     6.579     0.611     0.188     0.000  147169.5   786126.9
  214.000     5.360     6.601     0.606     0.186     0.000  146367.1   784466.8
  214.500     5.378     6.608     0.606     0.186     0.000  147430.4   792911.7
  215.000     5.396     6.630     0.600     0.184     0.000  146332.4   789594.6
  215.500     5.414     6.634     0.600     0.184     0.000  147344.1   797685.4
  216.000     5.430     6.654     0.594     0.182     0.000  145883.5   792146.1
  216.500     5.446     6.654     0.594     0.182     0.000  146776.3   799331.5
  217.000     5.460     6.671     0.588     0.179     0.000  145057.8   791960.1
  217.500     5.473     6.666     0.588     0.179     0.000  145777.1   797775.1
  218.000     5.483     6.679     0.581     0.176     0.000  143841.0   788664.8
  218.500     5.492     6.669     0.581     0.176     0.000  144358.4   792849.3
  219.000     5.499     6.677     0.575     0.174     0.000  142201.4   781940.5
  219.500     5.504     6.664     0.575     0.174     0.000  142520.9   784503.8
  220.000     5.508     6.667     0.568     0.171     0.000  140183.6   772073.9
  220.500     5.510     6.650     0.568     0.171     0.000  140337.7   773271.3
  221.000     5.510     6.650     0.562     0.169     0.000  138247.6   761804.1
  221.500     5.510     6.633     0.562     0.169     0.000  138275.8   761957.5
  222.000     5.509     6.631     0.558     0.167     0.000  136500.9   751965.1
  222.500     5.507     6.615     0.558     0.167     0.000  136452.9   751484.9
  223.000     5.505     6.612     0.554     0.166     0.000  134910.3   742658.1
  223.500     5.503     6.598     0.554     0.166     0.000  134841.9   742010.9
  224.000     5.501     6.595     0.550     0.165     0.000  133388.1   733712.7
  224.500     5.499     6.583     0.550     0.165     0.000  133354.7   733362.8
  225.000     5.498     6.581     0.547     0.163     0.000  132144.9   726585.1
  225.500     5.499     6.572     0.547     0.163     0.000  132182.5   726839.7
  226.000     5.500     6.573     0.543     0.162     0.000  130944.0   720160.4
  226.500     5.502     6.566     0.543     0.162     0.000  131077.4   721233.1
  227.000     5.506     6.570     0.539     0.161     0.000  129853.3   714926.8
  227.500     5.511     6.564     0.539     0.161     0.000  130083.2   716829.1
  228.000     5.516     6.571     0.535     0.159     0.000  128834.8   710652.5
  228.500     5.523     6.567     0.535     0.159     0.000  129145.8   713255.6
  229.000     5.530     6.575     0.529     0.157     0.000  127354.6   704271.8
  229.500     5.539     6.569     0.529     0.157     0.000  127735.2   707477.7
  230.000     5.547     6.579     0.522     0.154     0.000  125731.5   697448.8
  230.500     5.557     6.571     0.522     0.154     0.000  126155.7   701035.1
  231.000     5.566     6.582     0.515     0.152     0.000  123964.4   690006.3
  231.500     5.576     6.573     0.515     0.152     0.000  124403.1   693726.3
  232.000     5.586     6.584     0.507     0.149     0.000  122185.8   682504.5
  232.500     5.596     6.575     0.507     0.149     0.000  122605.3   686071.0
  233.000     5.604     6.585     0.499     0.146     0.000  120336.9   674422.3
  233.500     5.613     6.575     0.499     0.146     0.000  120708.0   677586.5
  234.000     5.621     6.584     0.492     0.143     0.000  118364.6   665311.5
  234.500     5.628     6.571     0.492     0.143     0.000  118670.0   667928.8
  235.000     5.634     6.578     0.484     0.141     0.000  116246.9   654987.5
  235.500     5.641     6.565     0.484     0.141     0.000  116488.5   657078.5
  236.000     5.646     6.570     0.476     0.138     0.000  114000.8   643606.2
  236.500     5.651     6.556     0.476     0.138     0.000  114201.4   645372.2
  237.000     5.656     6.561     0.468     0.135     0.000  111682.4   631658.7
  237.500     5.662     6.546     0.468     0.135     0.000  111880.3   633433.1
  238.000     5.667     6.553     0.459     0.132     0.000  109372.7   619843.1
  238.500     5.675     6.540     0.459     0.132     0.000  109612.2   622002.6
  239.000     5.682     6.549     0.451     0.130     0.000  107156.5   608876.7
  239.500     5.692     6.539     0.451     0.130     0.000  107476.6   611748.1
  240.000     5.702     6.551     0.442     0.127     0.000  105101.4   599322.3
  240.500     5.715     6.544     0.442     0.127     0.000  105527.9   603119.0
  241.000     5.729     6.560     0.434     0.124     0.000  103245.3   591489.6
  241.500     5.745     6.557     0.434     0.124     0.000  103788.2   596295.6
  242.000     5.762     6.577     0.426     0.121     0.000  101899.6   587188.3
  242.500     5.782     6.579     0.426     0.121     0.000  102550.0   592931.7
  243.000     5.802     6.602     0.419     0.119     0.000  100914.6   585502.5
  243.500     5.824     6.609     0.419     0.119     0.000  101657.7   592065.1
  244.000     5.847     6.635     0.411     0.116     0.000  100013.2   584741.2
  244.500     5.871     6.644     0.411     0.116     0.000  100832.5   591992.7
  245.000     5.896     6.672     0.404     0.114     0.000   99456.2   586347.3
  245.500     5.921     6.684     0.404     0.114     0.000  100326.3   594073.6
  246.000     5.947     6.713     0.398     0.112     0.000   98992.1   588705.6
  246.500     5.974     6.726     0.398     0.112     0.000   99886.9   596682.0
  247.000     5.999     6.755     0.391     0.110     0.000   98583.0   591443.5
  247.500     6.026     6.769     0.391     0.110     0.000   99474.3   599422.9
  248.000     6.051     6.797     0.384     0.108     0.000   98271.2   594666.9
  248.500     6.077     6.811     0.384     0.108     0.000   99131.2   602405.3
  249.000     6.101     6.838     0.379     0.106     0.000   98070.8   598337.0
  249.500     6.125     6.851     0.379     0.106     0.000   98879.7   605657.5
  250.000     6.148     6.876     0.373     0.104     0.000   97869.0   601694.4
  250.500     6.171     6.889     0.373     0.104     0.000   98623.4   608568.3
  251.000     6.192     6.913     0.369     0.103     0.000   97811.9   605671.2
  251.500     6.214     6.926     0.369     0.103     0.000   98528.6   612256.4
  252.000     6.235     6.950     0.363     0.101     0.000   97171.0   605891.6
  252.500     6.258     6.960     0.363     0.101     0.000   97892.5   612594.0
  253.000     6.280     6.985     0.359     0.100     0.000   97373.0   611544.0
  253.500     6.304     7.002     0.359     0.100     0.000   98120.9   618570.7
  254.000     6.328     7.029     0.356     0.099     0.000   97672.4   618104.5
  254.500     6.354     7.049     0.356     0.099     0.000   98463.5   625616.9
  255.000     6.380     7.078     0.352     0.098     0.000   98131.5   626044.1
  255.500     6.407     7.099     0.352     0.098     0.000   98961.5   633997.5
  256.000     6.433     7.129     0.349     0.097     0.000   98679.3   634847.5
  256.500     6.461     7.152     0.349     0.097     0.000   99530.6   643065.1
  257.000     6.488     7.182     0.346     0.096     0.000   99270.6   644088.0
  257.500     6.516     7.205     0.346     0.096     0.000  100126.7   652400.0
  258.000     6.543     7.235     0.343     0.095     0.000   99812.5   653054.8
  258.500     6.570     7.257     0.343     0.095     0.000  100669.2   661416.6
  259.000     6.597     7.287     0.340     0.094     0.000  100640.7   663947.1
  259.500     6.625     7.311     0.340     0.094     0.000  101502.2   672404.4
  260.000     6.652     7.341     0.338     0.093     0.000  101432.9   674705.9
  260.500     6.680     7.365     0.338     0.093     0.000  102312.6   683406.6
  261.000     6.708     7.396     0.335     0.092     0.000  102285.9   686091.5
  261.500     6.736     7.422     0.335     0.092     0.000  103192.9   695148.8
  262.000     6.765     7.454     0.333     0.092     0.000  103274.2   698699.8
  262.500     6.795     7.481     0.333     0.092     0.000  104210.4   708150.2
  263.000     6.826     7.515     0.332     0.091     0.000  104660.2   714365.1
  263.500     6.856     7.545     0.332     0.091     0.000  105621.1   724172.2
  264.000     6.887     7.579     0.331     0.091     0.000  106178.8   731288.0
  264.500     6.919     7.611     0.331     0.091     0.000  107165.1   741460.0
  265.000     6.951     7.646     0.331     0.091     0.000  108122.9   751525.4
  265.500     6.983     7.681     0.331     0.091     0.000  109136.8   762079.0
  266.000     7.015     7.717     0.331     0.091     0.000  110156.6   772775.0
  266.500     7.048     7.753     0.331     0.091     0.000  111205.1   783775.9
  267.000     7.081     7.790     0.329     0.091     0.000  111705.7   790999.4
  267.500     7.115     7.823     0.329     0.091     0.000  112795.3   802510.6
  268.000     7.148     7.860     0.328     0.090     0.000  113299.2   809916.1
  268.500     7.182     7.894     0.328     0.090     0.000  114416.3   821789.1
  269.000     7.216     7.931     0.326     0.090     0.000  114896.5   829099.7
  269.500     7.249     7.963     0.326     0.090     0.000  116011.1   841011.5
  270.000     7.282     7.999     0.325     0.089     0.000  116525.6   848513.1
  270.500     7.313     8.030     0.325     0.089     0.000  117593.4   859983.9
  271.000     7.343     8.062     0.324     0.089     0.000  118084.9   867095.7
  271.500     7.371     8.090     0.324     0.089     0.000  119057.2   877592.8
  272.000     7.397     8.119     0.323     0.088     0.000  119350.4   882859.6
  272.500     7.421     8.141     0.323     0.088     0.000  120187.2   891941.6
  273.000     7.443     8.165     0.322     0.088     0.000  120480.5   896718.8
  273.500     7.462     8.184     0.322     0.088     0.000  121157.4   904106.9
  274.000     7.479     8.202     0.321     0.088     0.000  121444.2   908308.9
  274.500     7.494     8.217     0.321     0.088     0.000  121963.6   914016.0
  275.000     7.507     8.231     0.321     0.088     0.000  122256.4   917796.2
  275.500     7.519     8.243     0.321     0.088     0.000  122648.8   922145.4
  276.000     7.529     8.254     0.321     0.088     0.000  123410.5   929130.8
  276.500     7.538     8.266     0.321     0.088     0.000  123717.6   932570.4
  277.000     7.547     8.276     0.322     0.088     0.000  124433.4   939049.0
  277.500     7.555     8.288     0.322     0.088     0.000  124710.3   942182.8
  278.000     7.564     8.297     0.323     0.089     0.000  125405.5   948515.3
  278.500     7.572     8.309     0.323     0.089     0.000  125694.1   951802.8
  279.000     7.582     8.319     0.325     0.089     0.000  126686.7   960502.6
  279.500     7.591     8.334     0.325     0.089     0.000  127001.8   964098.1
  280.000     7.601     8.345     0.326     0.089     0.000  127919.5   972354.1
  280.500     7.612     8.359     0.326     0.089     0.000  128265.4   976297.4
  281.000     7.622     8.371     0.327     0.090     0.000  129104.9   984070.9
  281.500     7.633     8.386     0.327     0.090     0.000  129477.0   988308.4
  282.000     7.644     8.398     0.327     0.090     0.000  130143.0   994847.0
  282.500     7.656     8.412     0.327     0.090     0.000  130536.1   999326.7
  283.000     7.667     8.425     0.326     0.090     0.000  130421.8   999955.7
  283.500     7.679     8.435     0.326     0.090     0.000  130839.5  1004726.6
  284.000     7.691     8.448     0.325     0.089     0.000  130589.9  1004374.3
  284.500     7.703     8.458     0.325     0.089     0.000  131016.5  1009259.5
  285.000     7.715     8.471     0.323     0.089     0.000  130573.0  1007394.9
  285.500     7.727     8.479     0.323     0.089     0.000  130987.1  1012144.2
  286.000     7.738     8.491     0.320     0.088     0.000  129751.2  1004034.0
  286.500     7.749     8.494     0.320     0.088     0.000  130138.3  1008477.2
  287.000     7.759     8.505     0.317     0.087     0.000  128914.7  1000271.1
  287.500     7.769     8.506     0.317     0.087     0.000  129244.7  1004055.0
  288.000     7.776     8.515     0.314     0.086     0.000  127923.6   994794.1
  288.500     7.783     8.513     0.314     0.086     0.000  128170.6   997615.7
  289.000     7.789     8.519     0.312     0.085     0.000  127492.4   992977.0
  289.500     7.792     8.518     0.312     0.085     0.000  127619.5   994401.0
  290.000     7.793     8.519     0.310     0.085     0.000  126886.9   988833.1
  290.500     7.792     8.514     0.310     0.085     0.000  126875.0   988635.7
  291.000     7.789     8.510     0.309     0.084     0.000  126149.0   982558.1
  291.500     7.783     8.500     0.309     0.084     0.000  125984.8   980587.3
  292.000     7.775     8.492     0.309     0.084     0.000  125735.3   977633.5
  292.500     7.765     8.480     0.309     0.084     0.000  125407.2   973763.2
  293.000     7.752     8.466     0.309     0.084     0.000  125063.7   969492.1
  293.500     7.737     8.450     0.309     0.084     0.000  124591.0   963966.0
  294.000     7.720     8.432     0.309     0.084     0.000  124240.9   959182.6
  294.500     7.702     8.413     0.309     0.084     0.000  123660.4   952451.4
  295.000     7.683     8.392     0.310     0.085     0.000  123320.8   947473.3
  295.500     7.663     8.372     0.310     0.085     0.000  122683.5   940142.4
  296.000     7.643     8.350     0.311     0.085     0.000  122518.9   936439.4
  296.500     7.623     8.331     0.311     0.085     0.000  121875.5   929097.0
  297.000     7.604     8.310     0.313     0.086     0.000  122365.6   930483.9
  297.500     7.585     8.296     0.313     0.086     0.000  121747.3   923480.9
  298.000     7.568     8.277     0.315     0.086     0.000  121913.3   922588.2
  298.500     7.551     8.263     0.315     0.086     0.000  121361.1   916377.5
  299.000     7.536     8.246     0.318     0.087     0.000  122260.7   921301.4
  299.500     7.521     8.238     0.318     0.087     0.000  121769.4   915805.8
  300.000     7.508     8.224     0.319     0.087     0.000  121862.2   914881.3
  300.500     7.495     8.213     0.319     0.087     0.000  121449.5   910282.0
  301.000     7.484     8.201     0.324     0.089     0.000  123308.0   922833.7
  301.500     7.472     8.202     0.324     0.089     0.000  122920.7   918520.1
  302.000     7.462     8.190     0.327     0.090     0.000  124011.1   925374.5
  302.500     7.452     8.187     0.327     0.090     0.000  123665.1   921521.5
  303.000     7.443     8.177     0.330     0.091     0.000  124863.4   929312.6
  303.500     7.434     8.177     0.330     0.091     0.000  124566.0   926005.3
  304.000     7.427     8.169     0.334     0.092     0.000  125800.3   934266.2
  304.500     7.420     8.170     0.334     0.092     0.000  125578.6   931812.8
  305.000     7.416     8.166     0.337     0.093     0.000  126930.8   941299.3
  305.500     7.413     8.172     0.337     0.093     0.000  126826.4   940168.3
  306.000     7.413     8.172     0.340     0.094     0.000  128275.4   950912.0
  306.500     7.415     8.183     0.340     0.094     0.000  128338.1   951661.7
  307.000     7.421     8.189     0.343     0.095     0.000  130015.1   964827.6
  307.500     7.429     8.207     0.343     0.095     0.000  130285.4   967904.4
  308.000     7.441     8.220     0.346     0.096     0.000  131983.0   982075.9
  308.500     7.455     8.244     0.346     0.096     0.000  132482.1   987710.1
  309.000     7.473     8.263     0.349     0.096     0.000  134388.0  1004306.5
  309.500     7.493     8.293     0.349     0.096     0.000  135096.1  1012280.8
  310.000     7.515     8.318     0.350     0.097     0.000  136781.8  1027960.1
  310.500     7.539     8.349     0.350     0.097     0.000  137646.0  1037701.2
  311.000     7.564     8.376     0.353     0.098     0.000  139779.0  1057248.0
  311.500     7.588     8.411     0.353     0.098     0.000  140702.3  1067689.8
  312.000     7.613     8.438     0.355     0.098     0.000  142682.6  1086208.4
  312.500     7.636     8.470     0.355     0.098     0.000  143566.6  1096250.9
  313.000     7.658     8.494     0.357     0.099     0.000  145438.4  1113715.2
  313.500     7.677     8.521     0.357     0.099     0.000  146197.1  1122369.6
  314.000     7.695     8.541     0.360     0.100     0.000  148163.2  1140051.9
  314.500     7.709     8.564     0.360     0.100     0.000  148743.5  1146681.3
  315.000     7.722     8.578     0.362     0.101     0.000  150432.2  1161577.6
  315.500     7.731     8.596     0.362     0.101     0.000  150836.1  1166183.6
  316.000     7.740     8.605     0.364     0.101     0.000  152291.6  1178696.8
  316.500     7.746     8.619     0.364     0.101     0.000  152560.8  1181753.6
  317.000     7.752     8.625     0.366     0.102     0.000  153800.1  1192210.4
  317.500     7.756     8.636     0.366     0.102     0.000  153993.6  1194407.7
  318.000     7.761     8.641     0.368     0.102     0.000  155042.8  1203233.4
  318.500     7.765     8.650     0.368     0.102     0.000  155212.6  1205180.8
  319.000     7.769     8.655     0.369     0.103     0.000  156086.0  1212648.3
  319.500     7.773     8.664     0.369     0.103     0.000  156262.7  1214704.3
  320.000     7.778     8.669     0.370     0.103     0.000  156916.7  1220543.1
  320.500     7.783     8.677     0.370     0.103     0.000  157109.4  1222813.5
  321.000     7.788     8.683     0.370     0.103     0.000  157615.0  1227569.9
  321.500     7.794     8.691     0.370     0.103     0.000  157814.7  1229945.2
  322.000     7.799     8.696     0.370     0.103     0.000  158060.8  1232690.5
  322.500     7.804     8.702     0.370     0.103     0.000  158251.9  1234986.4
  323.000     7.809     8.708     0.370     0.103     0.000  158279.1  1235959.2
  323.500     7.813     8.712     0.370     0.103     0.000  158441.1  1237928.5
  324.000     7.817     8.716     0.369     0.103     0.000  158087.4  1235769.5
  324.500     7.820     8.717     0.369     0.103     0.000  158202.4  1237197.4
  325.000     7.823     8.720     0.368     0.103     0.000  157675.3  1233451.1
  325.500     7.824     8.718     0.368     0.103     0.000  157721.5  1234074.2
  326.000     7.825     8.719     0.367     0.102     0.000  157043.3  1228832.0
  326.500     7.824     8.714     0.367     0.102     0.000  157001.8  1228422.9
  327.000     7.822     8.712     0.366     0.102     0.000  156234.9  1222108.1
  327.500     7.819     8.705     0.366     0.102     0.000  156090.2  1220483.4
  328.000     7.814     8.699     0.364     0.101     0.000  155109.8  1212073.6
  328.500     7.808     8.688     0.364     0.101     0.000  154855.5  1209156.9
  329.000     7.801     8.680     0.363     0.101     0.000  153915.1  1200621.9
  329.500     7.791     8.666     0.363     0.101     0.000  153542.6  1196315.0
  330.000     7.781     8.654     0.362     0.101     0.000  152765.0  1188587.9
  330.500     7.768     8.638     0.362     0.101     0.000  152265.3  1182795.0
  331.000     7.754     8.622     0.363     0.101     0.000  151919.0  1177928.8
  331.500     7.737     8.605     0.363     0.101     0.000  151278.4  1170501.4
  332.000     7.719     8.585     0.364     0.101     0.000  151136.6  1166680.0
  332.500     7.699     8.566     0.364     0.101     0.000  150353.0  1157610.7
  333.000     7.678     8.542     0.366     0.102     0.000  150406.7  1154761.4
  333.500     7.654     8.521     0.366     0.102     0.000  149486.5  1144146.7
  334.000     7.629     8.493     0.367     0.102     0.000  149315.5  1139096.9
  334.500     7.602     8.468     0.367     0.102     0.000  148288.9  1127308.6
  335.000     7.575     8.437     0.369     0.103     0.000  148348.5  1123672.3
  335.500     7.546     8.411     0.369     0.103     0.000  147240.6  1111023.4
  336.000     7.516     8.379     0.372     0.104     0.000  147425.4  1108104.3
  336.500     7.486     8.353     0.372     0.104     0.000  146272.1  1095026.5
  337.000     7.456     8.319     0.374     0.104     0.000  146314.3  1090968.9
  337.500     7.426     8.293     0.374     0.104     0.000  145162.9  1078014.8
  338.000     7.397     8.260     0.377     0.105     0.000  145421.9  1075680.8
  338.500     7.368     8.236     0.377     0.105     0.000  144305.2  1063226.7
  339.000     7.340     8.205     0.380     0.106     0.000  144688.9  1062039.7
  339.500     7.313     8.183     0.380     0.106     0.000  143637.4  1050423.0
  340.000     7.288     8.155     0.383     0.107     0.000  144244.6  1051193.0
  340.500     7.263     8.137     0.383     0.107     0.000  143278.6  1040624.8
  341.000     7.240     8.111     0.387     0.109     0.000  144034.5  1042847.9
  341.500     7.219     8.097     0.387     0.109     0.000  143170.4  1033484.4
  342.000     7.199     8.075     0.391     0.110     0.000  144349.9  1039166.4
  342.500     7.180     8.066     0.391     0.110     0.000  143589.6  1031001.0
  343.000     7.164     8.047     0.395     0.111     0.000  144933.5  1038241.3
  343.500     7.148     8.042     0.395     0.111     0.000  144280.7  1031286.0
  344.000     7.134     8.027     0.400     0.113     0.000  145711.0  1039507.2
  344.500     7.121     8.024     0.400     0.113     0.000  145164.1  1033714.5
  345.000     7.110     8.012     0.404     0.114     0.000  146662.1  1042750.1
  345.500     7.099     8.012     0.404     0.114     0.000  146213.1  1038010.8
  346.000     7.090     8.002     0.408     0.115     0.000  147740.0  1047540.4
  346.500     7.082     8.005     0.408     0.115     0.000  147378.6  1043728.8
  347.000     7.075     7.997     0.411     0.116     0.000  148684.4  1051943.5
  347.500     7.068     7.999     0.411     0.116     0.000  148405.0  1048994.4
  348.000     7.063     7.993     0.414     0.117     0.000  149588.3  1056575.1
  348.500     7.058     7.997     0.414     0.117     0.000  149378.3  1054353.7
  349.000     7.054     7.992     0.416     0.118     0.000  150078.1  1058710.2
  349.500     7.051     7.994     0.416     0.118     0.000  149930.7  1057141.5
  350.000     7.048     7.991     0.418     0.118     0.000  150520.1  1060881.1
  350.500     7.045     7.992     0.418     0.118     0.000  150414.9  1059748.0
  351.000     7.043     7.990     0.419     0.119     0.000  150874.9  1062669.1
  351.500     7.041     7.991     0.419     0.119     0.000  150795.5  1061795.8
  352.000     7.040     7.989     0.420     0.119     0.000  151275.8  1064909.2
  352.500     7.038     7.990     0.420     0.119     0.000  151210.9  1064174.4
  353.000     7.036     7.988     0.421     0.120     0.000  151713.1  1067475.8
  353.500     7.035     7.990     0.421     0.120     0.000  151663.8  1066897.7
  354.000     7.034     7.989     0.422     0.120     0.000  152172.3  1070312.1
  354.500     7.033     7.991     0.422     0.120     0.000  152152.6  1070047.3
  355.000     7.033     7.991     0.424     0.120     0.000  152808.2  1074642.3
  355.500     7.033     7.996     0.424     0.120     0.000  152836.1  1074891.8
  356.000     7.034     7.997     0.425     0.121     0.000  153480.0  1079628.4
  356.500     7.036     8.003     0.425     0.121     0.000  153580.1  1080658.3
  357.000     7.040     8.007     0.426     0.121     0.000  154285.4  1086137.0
  357.500     7.044     8.015     0.426     0.121     0.000  154477.4  1088151.3
  358.000     7.050     8.022     0.426     0.121     0.000  154943.6  1092308.3
  358.500     7.057     8.031     0.426     0.121     0.000  155248.5  1095523.6
  359.000     7.065     8.040     0.427     0.122     0.000  155906.6  1101449.6
  359.500     7.074     8.053     0.427     0.122     0.000  156323.6  1105860.5
  360.000     7.085     8.065     0.428     0.122     0.000  157299.4  1114434.5
  360.500     7.096     8.081     0.428     0.122     0.000  157810.2  1119858.4
  361.000     7.109     8.095     0.429     0.122     0.000  158888.1  1129476.3
  361.500     7.121     8.113     0.429     0.122     0.000  159458.3  1135564.2
  362.000     7.135     8.128     0.431     0.123     0.000  160760.8  1146950.0
  362.500     7.147     8.147     0.431     0.123     0.000  161329.6  1153052.4
  363.000     7.159     8.161     0.432     0.123     0.000  162680.3  1164701.4
  363.500     7.170     8.178     0.432     0.123     0.000  163176.5  1170040.6
  364.000     7.180     8.189     0.434     0.124     0.000  164558.5  1181559.0
  364.500     7.188     8.204     0.434     0.124     0.000  164914.7  1185390.7
  365.000     7.194     8.211     0.436     0.125     0.000  166273.1  1196160.7
  365.500     7.198     8.222     0.436     0.125     0.000  166444.4  1197990.5
  366.000     7.199     8.224     0.438     0.125     0.000  167608.0  1206665.1
  366.500     7.199     8.229     0.438     0.125     0.000  167585.0  1206395.1
  367.000     7.196     8.227     0.440     0.126     0.000  168521.8  1212766.3
  367.500     7.192     8.228     0.440     0.126     0.000  168327.9  1210658.2
  368.000     7.187     8.222     0.442     0.127     0.000  169017.9  1214720.2
  368.500     7.180     8.220     0.442     0.127     0.000  168703.0  1211326.7
  369.000     7.173     8.212     0.444     0.127     0.000  169090.0  1212898.3
  369.500     7.165     8.208     0.444     0.127     0.000  168721.4  1208956.6
  370.000     7.158     8.199     0.444     0.127     0.000  168798.0  1208247.5
  370.500     7.151     8.194     0.444     0.127     0.000  168443.6  1204495.2
  371.000     7.144     8.186     0.445     0.127     0.000  168309.9  1202451.2
  371.500     7.139     8.181     0.445     0.127     0.000  168020.0  1199424.9
  372.000     7.134     8.176     0.445     0.127     0.000  167779.7  1196920.8
  372.500     7.130     8.171     0.445     0.127     0.000  167578.3  1194859.4
  373.000     7.127     8.168     0.444     0.127     0.000  167249.7  1192046.0
  373.500     7.125     8.165     0.444     0.127     0.000  167135.4  1190910.7
  374.000     7.124     8.163     0.444     0.127     0.000  166722.9  1187752.1
  374.500     7.123     8.161     0.444     0.127     0.000  166672.7  1187275.5
  375.000     7.123     8.160     0.443     0.127     0.000  166238.0  1184084.2
  375.500     7.122     8.157     0.443     0.127     0.000  166211.9  1183828.2
  376.000     7.122     8.156     0.443     0.127     0.000  166078.8  1182751.7
  376.500     7.120     8.154     0.443     0.127     0.000  166021.8  1182133.5
  377.000     7.118     8.152     0.441     0.126     0.000  165016.7  1174641.7
  377.500     7.116     8.143     0.441     0.126     0.000  164915.6  1173534.0
  378.000     7.113     8.140     0.440     0.126     0.000  164082.9  1167057.6
  378.500     7.109     8.131     0.440     0.126     0.000  163906.4  1165150.9
  379.000     7.104     8.125     0.439     0.125     0.000  163164.1  1159054.9
  379.500     7.098     8.115     0.439     0.125     0.000  162904.2  1156284.4
  380.000     7.091     8.108     0.438     0.125     0.000  162169.3  1150004.0
  380.500     7.084     8.097     0.438     0.125     0.000  161837.8  1146510.0
  381.000     7.077     8.088     0.437     0.125     0.000  161203.2  1140769.8
  381.500     7.068     8.077     0.437     0.125     0.000  160815.6  1136723.8
  382.000     7.060     8.067     0.438     0.125     0.000  160643.5  1134129.4
  382.500     7.051     8.058     0.438     0.125     0.000  160199.9  1129530.8
  383.000     7.041     8.048     0.436     0.125     0.000  158985.2  1119447.0
  383.500     7.032     8.032     0.436     0.125     0.000  158522.7  1114682.2
  384.000     7.022     8.021     0.436     0.125     0.000  158065.2  1109884.0
  384.500     7.011     8.009     0.436     0.125     0.000  157554.6  1104636.3
  385.000     7.000     7.996     0.436     0.125     0.000  156970.1  1098795.5
  385.500     6.988     7.982     0.436     0.125     0.000  156414.7  1093092.7
  386.000     6.976     7.969     0.436     0.124     0.000  155793.8  1086873.9
  386.500     6.964     7.954     0.436     0.124     0.000  155209.6  1080880.0
  387.000     6.952     7.940     0.437     0.125     0.000  155103.7  1078205.7
  387.500     6.939     7.929     0.437     0.125     0.000  154512.7  1072145.8
  388.000     6.927     7.915     0.438     0.125     0.000  154459.1  1069902.2
  388.500     6.915     7.905     0.438     0.125     0.000  153920.4  1064391.8
  389.000     6.905     7.893     0.439     0.126     0.000  154034.3  1063597.9
  389.500     6.896     7.887     0.439     0.126     0.000  153607.6  1059264.1
  390.000     6.889     7.878     0.441     0.126     0.000  154010.7  1060943.5
  390.500     6.883     7.877     0.441     0.126     0.000  153729.7  1058144.8
  391.000     6.880     7.873     0.443     0.127     0.000  154338.6  1061778.5
  391.500     6.877     7.875     0.443     0.127     0.000  154196.4  1060444.7
  392.000     6.876     7.874     0.445     0.127     0.000  155025.1  1066024.4
  392.500     6.876     7.880     0.445     0.127     0.000  154973.1  1065636.2
  393.000     6.877     7.881     0.446     0.128     0.000  155823.3  1071572.9
  393.500     6.877     7.887     0.446     0.128     0.000  155804.5  1071512.7
  394.000     6.878     7.887     0.448     0.129     0.000  156646.6  1077401.6
  394.500     6.878     7.893     0.448     0.129     0.000  156622.2  1077248.7
  395.000     6.878     7.893     0.450     0.129     0.000  157335.2  1082166.2
  395.500     6.878     7.898     0.450     0.129     0.000  157301.7  1081879.8
  396.000     6.878     7.897     0.451     0.130     0.000  157828.2  1085466.4
  396.500     6.877     7.900     0.451     0.130     0.000  157805.1  1085257.5
  397.000     6.877     7.901     0.451     0.130     0.000  157997.7  1086587.7
  397.500     6.878     7.902     0.451     0.130     0.000  158009.8  1086722.6
  398.000     6.878     7.903     0.451     0.130     0.000  158075.4  1087293.9
  398.500     6.879     7.905     0.451     0.130     0.000  158127.6  1087833.1
  399.000     6.881     7.906     0.451     0.130     0.000  158010.6  1087260.2
  399.500     6.883     7.907     0.451     0.130     0.000  158096.4  1088141.3
  400.000     6.885     7.909     0.450     0.129     0.000  157825.6  1086592.6
  400.500     6.887     7.910     0.450     0.129     0.000  157932.6  1087692.7
  401.000     6.889     7.912     0.448     0.129     0.000  157017.2  1081750.9
  401.500     6.892     7.909     0.448     0.129     0.000  157150.3  1083127.2
  402.000     6.895     7.912     0.446     0.128     0.000  156264.1  1077462.9
  402.500     6.899     7.910     0.446     0.128     0.000  156416.2  1079045.0
  403.000     6.902     7.914     0.443     0.127     0.000  155390.1  1072487.7
  403.500     6.906     7.911     0.443     0.127     0.000  155569.8  1074367.4
  404.000     6.910     7.915     0.443     0.127     0.000  155585.3  1075128.7
  404.500     6.915     7.920     0.443     0.127     0.000  155780.3  1077183.7
  405.000     6.920     7.925     0.439     0.126     0.000  154253.9  1067390.8
  405.500     6.926     7.922     0.439     0.126     0.000  154533.9  1070348.0
  406.000     6.934     7.930     0.438     0.125     0.000  154162.8  1068895.8
  406.500     6.942     7.935     0.438     0.125     0.000  154521.8  1072695.0
  407.000     6.951     7.946     0.436     0.125     0.000  154123.3  1071371.1
  407.500     6.962     7.953     0.436     0.125     0.000  154583.5  1076242.6
  408.000     6.974     7.967     0.435     0.124     0.000  154242.7  1075686.4
  408.500     6.987     7.976     0.435     0.124     0.000  154812.5  1081714.1
  409.000     7.001     7.993     0.433     0.123     0.000  154671.1  1082912.1
  409.500     7.017     8.005     0.433     0.123     0.000  155342.4  1090004.6
  410.000     7.033     8.024     0.431     0.123     0.000  155161.2  1091224.3
  410.500     7.050     8.037     0.431     0.123     0.000  155920.2  1099233.6
  411.000     7.067     8.057     0.430     0.123     0.000  156281.8  1104514.1
  411.500     7.085     8.075     0.430     0.123     0.000  157091.7  1113052.4
  412.000     7.103     8.096     0.429     0.122     0.000  157332.5  1117576.2
  412.500     7.121     8.113     0.429     0.122     0.000  158166.1  1126358.0
  413.000     7.139     8.133     0.429     0.122     0.000  158752.1  1133340.9
  413.500     7.156     8.151     0.429     0.122     0.000  159567.4  1141921.2
  414.000     7.173     8.170     0.428     0.122     0.000  160069.4  1148166.6
  414.500     7.189     8.186     0.428     0.122     0.000  160837.6  1156237.2
  415.000     7.204     8.203     0.427     0.122     0.000  161346.0  1162309.0
  415.500     7.218     8.218     0.427     0.122     0.000  162047.0  1169653.1
  416.000     7.231     8.233     0.427     0.122     0.000  162594.2  1175747.5
  416.500     7.244     8.246     0.427     0.122     0.000  163223.1  1182312.7
  417.000     7.255     8.259     0.428     0.122     0.000  164161.6  1191003.6
  417.500     7.266     8.274     0.428     0.122     0.000  164715.9  1196765.9
  418.000     7.276     8.285     0.429     0.122     0.000  165730.9  1205779.8
  418.500     7.284     8.298     0.429     0.122     0.000  166211.4  1210755.1
  419.000     7.293     8.307     0.430     0.123     0.000  167254.2  1219713.2
  419.500     7.299     8.319     0.430     0.123     0.000  167638.5  1223661.7
  420.000     7.305     8.325     0.431     0.123     0.000  168574.9  1231448.2
  420.500     7.309     8.333     0.431     0.123     0.000  168810.0  1233794.4
  421.000     7.311     8.335     0.433     0.123     0.000  169622.8  1240043.2
  421.500     7.310     8.338     0.433     0.123     0.000  169634.6  1239983.8
  422.000     7.306     8.334     0.434     0.124     0.000  170165.8  1243286.3
  422.500     7.300     8.331     0.434     0.124     0.000  169897.5  1240215.7
  423.000     7.291     8.320     0.435     0.124     0.000  169927.3  1238859.8
  423.500     7.278     8.309     0.435     0.124     0.000  169380.7  1232829.9
  424.000     7.264     8.293     0.436     0.124     0.000  169323.6  1230002.8
  424.500     7.248     8.278     0.436     0.124     0.000  168561.2  1221729.6
  425.000     7.231     8.258     0.437     0.125     0.000  168505.4  1218440.0
  425.500     7.213     8.243     0.437     0.125     0.000  167651.8  1209303.5
  426.000     7.196     8.223     0.439     0.125     0.000  167497.8  1205358.1
  426.500     7.180     8.210     0.439     0.125     0.000  166707.3  1197035.7
  427.000     7.167     8.194     0.440     0.126     0.000  166906.2  1196196.5
  427.500     7.155     8.186     0.440     0.126     0.000  166292.4  1189893.3
  428.000     7.147     8.177     0.442     0.126     0.000  166610.9  1190760.3
  428.500     7.141     8.175     0.442     0.126     0.000  166233.8  1187074.3
  429.000     7.138     8.171     0.444     0.127     0.000  166784.0  1190488.6
  429.500     7.137     8.175     0.444     0.127     0.000  166632.8  1189240.0
  430.000     7.138     8.177     0.445     0.128     0.000  167347.5  1194535.6
  430.500     7.140     8.184     0.445     0.128     0.000  167368.4  1195087.4
  431.000     7.144     8.188     0.446     0.128     0.000  168036.1  1200478.1
  431.500     7.148     8.197     0.446     0.128     0.000  168165.8  1202114.2
  432.000     7.153     8.202     0.447     0.128     0.000  168722.8  1206899.5
  432.500     7.158     8.210     0.447     0.128     0.000  168905.5  1209010.7
  433.000     7.163     8.216     0.447     0.128     0.000  169294.0  1212606.6
  433.500     7.167     8.222     0.447     0.128     0.000  169493.8  1214820.1
  434.000     7.172     8.227     0.447     0.128     0.000  169325.8  1214376.1
  434.500     7.176     8.230     0.447     0.128     0.000  169542.8  1216715.8
  435.000     7.181     8.235     0.445     0.128     0.000  169145.4  1214636.1
  435.500     7.186     8.237     0.445     0.128     0.000  169392.1  1217258.8
  436.000     7.191     8.243     0.443     0.127     0.000  168539.9  1212010.7
  436.500     7.197     8.244     0.443     0.127     0.000  168848.5  1215277.5
  437.000     7.204     8.251     0.440     0.126     0.000  167757.7  1208529.9
  437.500     7.212     8.251     0.440     0.126     0.000  168150.3  1212690.4
  438.000     7.220     8.261     0.437     0.125     0.000  166982.2  1205656.1
  438.500     7.230     8.262     0.437     0.125     0.000  167460.6  1210736.4
  439.000     7.240     8.274     0.434     0.124     0.000  166444.2  1205042.7
  439.500     7.251     8.277     0.434     0.124     0.000  166985.4  1210798.8
  440.000     7.262     8.289     0.431     0.123     0.000  166007.9  1205523.1
  440.500     7.273     8.293     0.431     0.123     0.000  166579.3  1211607.6
  441.000     7.285     8.306     0.429     0.122     0.000  166071.2  1209762.6
  441.500     7.296     8.312     0.429     0.122     0.000  166626.5  1215672.5
  442.000     7.306     8.324     0.427     0.122     0.000  166169.9  1214071.9
  442.500     7.316     8.330     0.427     0.122     0.000  166680.9  1219499.4
  443.000     7.326     8.340     0.425     0.121     0.000  166094.3  1216738.0
  443.500     7.334     8.344     0.425     0.121     0.000  166548.2  1221546.4
  444.000     7.342     8.353     0.423     0.120     0.000  165987.5  1218747.2
  444.500     7.350     8.356     0.423     0.120     0.000  166377.4  1222866.0
  445.000     7.357     8.363     0.421     0.120     0.000  165663.4  1218712.3
  445.500     7.363     8.364     0.421     0.120     0.000  165993.9  1222199.0
  446.000     7.368     8.370     0.419     0.119     0.000  165158.6  1216953.0
  446.500     7.374     8.369     0.419     0.119     0.000  165436.4  1219883.2
  447.000     7.378     8.375     0.417     0.118     0.000  164543.8  1214043.3
  447.500     7.383     8.373     0.417     0.118     0.000  164774.4  1216472.2
  448.000     7.386     8.377     0.415     0.117     0.000  163734.9  1209391.8
  448.500     7.390     8.374     0.415     0.117     0.000  163925.2  1211390.9
  449.000     7.393     8.377     0.413     0.117     0.000  162962.6  1204742.3
  449.500     7.396     8.373     0.413     0.117     0.000  163112.0  1206301.3
  450.000     7.398     8.376     0.411     0.116     0.000  162277.9  1200461.0
  450.500     7.399     8.372     0.411     0.116     0.000  162383.3  1201541.8
  451.000     7.401     8.373     0.409     0.116     0.000  161746.9  1197009.1
  451.500     7.401     8.370     0.409     0.116     0.000  161802.7  1197548.2
  452.000     7.401     8.370     0.408     0.115     0.000  161253.4  1193488.5
  452.500     7.401     8.366     0.408     0.115     0.000  161257.1  1193460.6
  453.000     7.400     8.365     0.407     0.115     0.000  160807.5  1189962.9
  453.500     7.398     8.361     0.407     0.115     0.000  160757.6  1189355.2
  454.000     7.396     8.358     0.406     0.115     0.000  160213.4  1184987.5
  454.500     7.394     8.353     0.406     0.115     0.000  160116.3  1183877.1
  455.000     7.391     8.349     0.405     0.114     0.000  159459.2  1178539.3
  455.500     7.388     8.343     0.405     0.114     0.000  159326.4  1177055.6
  456.000     7.384     8.339     0.404     0.114     0.000  158622.4  1171291.0
  456.500     7.381     8.331     0.404     0.114     0.000  158470.0  1169611.1
  457.000     7.377     8.327     0.403     0.114     0.000  157485.0  1161761.8
  457.500     7.374     8.319     0.403     0.114     0.000  157342.8  1160207.8
  458.000     7.371     8.315     0.401     0.113     0.000  156142.5  1150868.7
  458.500     7.368     8.306     0.401     0.113     0.000  156040.4  1149762.4
  459.000     7.366     8.304     0.398     0.112     0.000  154715.1  1139692.4
  459.500     7.366     8.296     0.398     0.112     0.000  154673.5  1139253.0
  460.000     7.365     8.295     0.396     0.111     0.000  153422.4  1129960.6
  460.500     7.366     8.288     0.396     0.111     0.000  153443.0  1130201.8
  461.000     7.366     8.289     0.393     0.111     0.000  152263.7  1121644.3
  461.500     7.368     8.284     0.393     0.111     0.000  152336.7  1122453.6
  462.000     7.370     8.286     0.391     0.110     0.000  151407.0  1115890.3
  462.500     7.373     8.283     0.391     0.110     0.000  151514.9  1117075.1
  463.000     7.375     8.286     0.390     0.109     0.000  150831.2  1112423.4
  463.500     7.378     8.284     0.390     0.109     0.000  150962.5  1113857.7
  464.000     7.381     8.288     0.388     0.109     0.000  150527.6  1111115.4
  464.500     7.385     8.288     0.388     0.109     0.000  150677.0  1112744.0
  465.000     7.388     8.292     0.388     0.109     0.000  150445.6  1111566.8
  465.500     7.392     8.294     0.388     0.109     0.000  150607.7  1113337.3
  466.000     7.396     8.299     0.388     0.109     0.000  150768.7  1115097.9
  466.500     7.400     8.303     0.388     0.109     0.000  150924.2  1116803.2
  467.000     7.403     8.307     0.388     0.109     0.000  151120.3  1118776.6
  467.500     7.406     8.310     0.388     0.109     0.000  151246.2  1120168.8
  468.000     7.409     8.313     0.388     0.109     0.000  151490.6  1122353.1
  468.500     7.410     8.316     0.388     0.109     0.000  151553.0  1123055.9
  469.000     7.411     8.316     0.388     0.109     0.000  151731.1  1124463.3
  469.500     7.410     8.317     0.388     0.109     0.000  151694.1  1124074.1
  470.000     7.408     8.314     0.389     0.109     0.000  151850.5  1124898.8
  470.500     7.404     8.311     0.389     0.109     0.000  151681.1  1123042.0
  471.000     7.398     8.305     0.389     0.109     0.000  151534.6  1121093.4
  471.500     7.391     8.297     0.389     0.109     0.000  151221.3  1117633.9
  472.000     7.381     8.286     0.390     0.109     0.000  151089.0  1115248.5
  472.500     7.370     8.275     0.390     0.109     0.000  150632.9  1110204.6
  473.000     7.358     8.261     0.390     0.110     0.000  150547.1  1107675.7
  473.500     7.344     8.248     0.390     0.110     0.000  149975.1  1101359.5
  474.000     7.329     8.231     0.392     0.110     0.000  149973.0  1099114.5
  474.500     7.313     8.217     0.392     0.110     0.000  149337.5  1092125.0
  475.000     7.298     8.200     0.393     0.111     0.000  149497.0  1090975.9
  475.500     7.282     8.188     0.393     0.111     0.000  148871.1  1084128.4
  476.000     7.268     8.172     0.395     0.111     0.000  149234.9  1084677.6
  476.500     7.255     8.163     0.395     0.111     0.000  148704.3  1078907.3
  477.000     7.245     8.151     0.397     0.112     0.000  149276.9  1081489.8
  477.500     7.237     8.148     0.397     0.112     0.000  148927.8  1077716.5
  478.000     7.231     8.142     0.399     0.113     0.000  149726.1  1082725.3
  478.500     7.229     8.146     0.399     0.113     0.000  149629.6  1081692.5
  479.000     7.231     8.147     0.401     0.113     0.000  150626.2  1089125.6
  479.500     7.235     8.159     0.401     0.113     0.000  150825.5  1091289.5
  480.000     7.244     8.168     0.403     0.114     0.000  151993.2  1101053.3
  480.500     7.256     8.187     0.403     0.114     0.000  152494.1  1106494.3
  481.000     7.271     8.204     0.404     0.114     0.000  153816.8  1118456.5
  481.500     7.289     8.229     0.404     0.114     0.000  154581.6  1126807.9
  482.000     7.310     8.252     0.405     0.114     0.000  155883.6  1139518.5
  482.500     7.332     8.280     0.405     0.114     0.000  156834.2  1149973.4
  483.000     7.356     8.306     0.406     0.115     0.000  157993.7  1162206.7
  483.500     7.380     8.334     0.406     0.115     0.000  159021.4  1173586.5
  484.000     7.404     8.361     0.405     0.114     0.000  159963.8  1184344.5
  484.500     7.427     8.387     0.405     0.114     0.000  160951.9  1195343.8
  485.000     7.448     8.411     0.405     0.114     0.000  161640.2  1203908.2
  485.500     7.468     8.431     0.405     0.114     0.000  162493.0  1213433.2
  486.000     7.485     8.451     0.404     0.114     0.000  162870.5  1219061.7
  486.500     7.500     8.466     0.404     0.114     0.000  163535.7  1226504.2
  487.000     7.513     8.480     0.404     0.114     0.000  163765.0  1230290.6
  487.500     7.523     8.490     0.404     0.114     0.000  164234.4  1235541.8
  488.000     7.531     8.499     0.403     0.114     0.000  164412.3  1238255.1
  488.500     7.538     8.505     0.403     0.114     0.000  164711.3  1241593.1
  489.000     7.543     8.511     0.403     0.114     0.000  164944.9  1244171.8
  489.500     7.547     8.515     0.403     0.114     0.000  165111.3  1246018.6
  490.000     7.549     8.518     0.404     0.114     0.000  165676.4  1250683.7
  490.500     7.550     8.522     0.404     0.114     0.000  165735.3  1251319.2
  491.000     7.550     8.522     0.405     0.114     0.000  166413.2  1256484.6
  491.500     7.549     8.525     0.405     0.114     0.000  166379.6  1256078.2
  492.000     7.548     8.523     0.407     0.115     0.000  167240.0  1262294.7
  492.500     7.545     8.525     0.407     0.115     0.000  167112.7  1260836.4
  493.000     7.541     8.521     0.409     0.116     0.000  168111.1  1267751.1
  493.500     7.536     8.522     0.409     0.116     0.000  167888.2  1265222.1
  494.000     7.530     8.516     0.412     0.117     0.000  169019.3  1272799.4
  494.500     7.524     8.516     0.412     0.117     0.000  168710.7  1269316.1
  495.000     7.517     8.508     0.415     0.118     0.000  170014.6  1277922.9
  495.500     7.508     8.508     0.415     0.118     0.000  169648.0  1273800.1
  496.000     7.501     8.500     0.418     0.119     0.000  170977.4  1282457.2
  496.500     7.493     8.500     0.418     0.119     0.000  170599.2  1278218.4
  497.000     7.485     8.492     0.421     0.120     0.000  171952.9  1287093.9
  497.500     7.478     8.494     0.421     0.120     0.000  171609.0  1283254.3
  498.000     7.472     8.487     0.424     0.121     0.000  172958.8  1292283.7
  498.500     7.466     8.490     0.424     0.121     0.000  172679.8  1289183.2
  499.000     7.461     8.484     0.426     0.121     0.000  173627.5  1295465.3
  499.500     7.457     8.487     0.426     0.121     0.000  173431.3  1293299.4
  500.000     7.454     8.483     0.428     0.122     0.000  174316.6  1299391.2
  500.500     7.452     8.487     0.428     0.122     0.000  174187.4  1297974.4
  501.000     7.450     8.484     0.424     0.120     0.000  171610.8  1278462.5
  501.500     7.450     8.470     0.424     0.120     0.000  171617.0  1278552.9
  502.000     7.451     8.471     0.425     0.121     0.000  172114.2  1282342.9
  502.500     7.451     8.474     0.425     0.121     0.000  172123.0  1282454.6
  503.000     7.451     8.474     0.425     0.121     0.000  172183.7  1282945.6
  503.500     7.451     8.474     0.425     0.121     0.000  172186.7  1282983.8
  504.000     7.451     8.474     0.424     0.121     0.000  172031.8  1281827.6
  504.500     7.451     8.473     0.424     0.121     0.000  172034.1  1281849.6
  505.000     7.451     8.474     0.424     0.121     0.000  172014.1  1281708.5
  505.500     7.451     8.474     0.424     0.121     0.000  172025.4  1281824.5
  506.000     7.452     8.474     0.424     0.121     0.000  172061.2  1282164.4
  506.500     7.453     8.475     0.424     0.121     0.000  172101.4  1282598.1
  507.000     7.454     8.476     0.425     0.121     0.000  172317.0  1284422.1
  507.500     7.456     8.479     0.425     0.121     0.000  172402.7  1285364.6
  508.000     7.458     8.482     0.425     0.121     0.000  172699.5  1287999.2
  508.500     7.461     8.487     0.425     0.121     0.000  172846.7  1289631.4
  509.000     7.465     8.491     0.425     0.121     0.000  173288.4  1293604.3
  509.500     7.470     8.498     0.425     0.121     0.000  173504.5  1296015.7
  510.000     7.475     8.504     0.426     0.121     0.000  174027.5  1300874.3
  510.500     7.481     8.513     0.426     0.121     0.000  174313.8  1304086.6
  511.000     7.488     8.521     0.426     0.121     0.000  174775.2  1308753.4
  511.500     7.496     8.530     0.426     0.121     0.000  175126.9  1312714.6
  512.000     7.504     8.539     0.426     0.121     0.000  175519.2  1317087.9
  512.500     7.513     8.549     0.426     0.121     0.000  175917.7  1321585.1
  513.000     7.521     8.559     0.426     0.121     0.000  176175.7  1325065.8
  513.500     7.530     8.568     0.426     0.121     0.000  176587.3  1329711.7
  514.000     7.538     8.578     0.426     0.121     0.000  176922.4  1333721.7
  514.500     7.546     8.586     0.426     0.121     0.000  177291.7  1337879.1
  515.000     7.553     8.594     0.425     0.121     0.000  177364.8  1339622.3
  515.500     7.558     8.599     0.425     0.121     0.000  177635.6  1342648.3
  516.000     7.562     8.603     0.425     0.121     0.000  177451.2  1341937.2
  516.500     7.564     8.603     0.425     0.121     0.000  177567.4  1343194.9
  517.000     7.564     8.603     0.424     0.121     0.000  177247.9  1340772.0
  517.500     7.562     8.599     0.424     0.121     0.000  177163.3  1339750.8
  518.000     7.558     8.594     0.423     0.120     0.000  176591.9  1334626.1
  518.500     7.551     8.584     0.423     0.120     0.000  176291.1  1331170.2
  519.000     7.542     8.574     0.423     0.120     0.000  175594.5  1324331.3
  519.500     7.531     8.560     0.423     0.120     0.000  175092.0  1318630.5
  520.000     7.518     8.545     0.422     0.120     0.000  174258.0  1310123.2
  520.500     7.504     8.528     0.422     0.120     0.000  173600.1  1302715.3
  521.000     7.489     8.510     0.422     0.120     0.000  172596.4  1292523.4
  521.500     7.473     8.490     0.422     0.120     0.000  171847.9  1284146.5
  522.000     7.456     8.471     0.422     0.120     0.000  170937.0  1274482.6
  522.500     7.439     8.451     0.422     0.120     0.000  170154.7  1265769.8
  523.000     7.422     8.432     0.422     0.120     0.000  169407.9  1257338.0
  523.500     7.405     8.413     0.422     0.120     0.000  168633.2  1248743.6
  524.000     7.389     8.394     0.422     0.120     0.000  167985.8  1241163.5
  524.500     7.372     8.376     0.422     0.120     0.000  167243.6  1232956.2
  525.000     7.356     8.358     0.422     0.120     0.000  166479.6  1224684.7
  525.500     7.341     8.340     0.422     0.120     0.000  165784.9  1217026.3
  526.000     7.326     8.323     0.422     0.120     0.000  165179.1  1210115.6
  526.500     7.312     8.307     0.422     0.120     0.000  164528.5  1202964.7
  527.000     7.298     8.291     0.422     0.120     0.000  163894.2  1196028.7
  527.500     7.284     8.276     0.422     0.120     0.000  163290.1  1189411.3
  528.000     7.271     8.261     0.422     0.120     0.000  162666.6  1182755.5
  528.500     7.259     8.247     0.422     0.120     0.000  162115.1  1176739.0
  529.000     7.247     8.234     0.421     0.120     0.000  161357.6  1169349.5
  529.500     7.236     8.220     0.421     0.120     0.000  160874.1  1164101.3
  530.000     7.226     8.208     0.421     0.119     0.000  160051.0  1156536.3
  530.500     7.217     8.196     0.421     0.119     0.000  159648.3  1152193.8
  531.000     7.209     8.187     0.419     0.119     0.000  158573.2  1143148.3
  531.500     7.202     8.175     0.419     0.119     0.000  158263.3  1139835.5
  532.000     7.196     8.168     0.417     0.118     0.000  157130.0  1130729.9
  532.500     7.191     8.157     0.417     0.118     0.000  156907.8  1128387.8
  533.000     7.187     8.152     0.415     0.118     0.000  155665.9  1118816.9
  533.500     7.184     8.143     0.415     0.118     0.000  155517.6  1117290.5
  534.000     7.182     8.140     0.413     0.117     0.000  154151.6  1107073.9
  534.500     7.180     8.130     0.413     0.117     0.000  154057.0  1106138.9
  535.000     7.178     8.128     0.412     0.117     0.000  153412.0  1101256.9
  535.500     7.177     8.123     0.412     0.117     0.000  153327.4  1100435.4
  536.000     7.175     8.122     0.407     0.115     0.000  151002.6  1083506.5
  536.500     7.175     8.107     0.407     0.115     0.000  150955.0  1083079.2
  537.000     7.174     8.106     0.404     0.114     0.000  149601.7  1073215.6
  537.500     7.173     8.097     0.404     0.114     0.000  149550.8  1072740.3
  538.000     7.172     8.096     0.402     0.113     0.000  148108.2  1062202.9
  538.500     7.171     8.086     0.402     0.113     0.000  148054.8  1061680.1
  539.000     7.169     8.085     0.399     0.112     0.000  146629.4  1051249.6
  539.500     7.168     8.075     0.399     0.112     0.000  146582.3  1050770.5
  540.000     7.167     8.074     0.396     0.111     0.000  145287.6  1041305.6
  540.500     7.167     8.065     0.396     0.111     0.000  145260.6  1041016.0
  541.000     7.166     8.065     0.394     0.111     0.000  144048.5  1032227.5
  541.500     7.166     8.057     0.394     0.111     0.000  144060.0  1032327.9
  542.000     7.166     8.058     0.391     0.110     0.000  142854.9  1023742.8
  542.500     7.168     8.052     0.391     0.110     0.000  142925.4  1024459.6
  543.000     7.170     8.054     0.389     0.109     0.000  141885.6  1017287.1
  543.500     7.173     8.051     0.389     0.109     0.000  142031.5  1018806.7
  544.000     7.177     8.055     0.386     0.108     0.000  141208.9  1013488.3
  544.500     7.183     8.056     0.386     0.108     0.000  141448.2  1016014.7
  545.000     7.190     8.063     0.385     0.108     0.000  140862.0  1012771.1
  545.500     7.199     8.068     0.385     0.108     0.000  141215.7  1016549.4
  546.000     7.209     8.079     0.383     0.107     0.000  140865.2  1015473.5
  546.500     7.221     8.089     0.383     0.107     0.000  141354.8  1020760.5
  547.000     7.236     8.104     0.381     0.107     0.000  141243.9  1021970.9
  547.500     7.252     8.119     0.381     0.107     0.000  141883.1  1028939.7
  548.000     7.270     8.139     0.380     0.106     0.000  141852.7  1031322.0
  548.500     7.291     8.158     0.380     0.106     0.000  142640.3  1039975.4
  549.000     7.313     8.183     0.378     0.106     0.000  142636.9  1043088.9
  549.500     7.337     8.204     0.378     0.106     0.000  143547.5  1053152.8
  550.000     7.361     8.231     0.376     0.105     0.000  143537.4  1056598.0
  550.500     7.387     8.254     0.376     0.105     0.000  144523.6  1067545.6
  551.000     7.412     8.283     0.374     0.104     0.000  144322.9  1069746.7
  551.500     7.438     8.304     0.374     0.104     0.000  145330.4  1080977.0
  552.000     7.463     8.332     0.371     0.103     0.000  144886.1  1081315.6
  552.500     7.488     8.352     0.371     0.103     0.000  145858.2  1092215.9
  553.000     7.512     8.378     0.368     0.102     0.000  145140.9  1090279.7
  553.500     7.535     8.394     0.368     0.102     0.000  146027.4  1100316.0
  554.000     7.556     8.418     0.364     0.101     0.000  144832.4  1094398.6
  554.500     7.577     8.429     0.364     0.101     0.000  145593.0  1103132.2
  555.000     7.595     8.449     0.359     0.100     0.000  144185.7  1095091.6
  555.500     7.612     8.456     0.359     0.100     0.000  144780.8  1102058.4
  556.000     7.626     8.472     0.355     0.099     0.000  143215.8  1092160.3
  556.500     7.638     8.473     0.355     0.099     0.000  143617.7  1096997.1
  557.000     7.648     8.484     0.351     0.097     0.000  141942.3  1085506.8
  557.500     7.655     8.480     0.351     0.097     0.000  142148.1  1088121.1
  558.000     7.659     8.485     0.348     0.096     0.000  140375.6  1075159.8
  558.500     7.662     8.477     0.348     0.096     0.000  140416.3  1075859.9
  559.000     7.662     8.478     0.344     0.095     0.000  138436.6  1060740.3
  559.500     7.662     8.466     0.344     0.095     0.000  138374.1  1060204.1
  560.000     7.660     8.464     0.340     0.094     0.000  136418.7  1044946.8
  560.500     7.658     8.451     0.340     0.094     0.000  136314.4  1043867.9
  561.000     7.655     8.448     0.337     0.093     0.000  134423.3  1028984.8
  561.500     7.652     8.434     0.337     0.093     0.000  134316.9  1027821.7
  562.000     7.649     8.431     0.333     0.092     0.000  132396.9  1012695.4
  562.500     7.646     8.417     0.333     0.092     0.000  132295.7  1011540.1
  563.000     7.642     8.413     0.329     0.090     0.000  130373.1   996347.2
  563.500     7.639     8.398     0.329     0.090     0.000  130255.1   994958.3
  564.000     7.633     8.393     0.325     0.089     0.000  128174.8   978419.3
  564.500     7.628     8.376     0.325     0.089     0.000  128013.7   976507.1
  565.000     7.621     8.368     0.324     0.089     0.000  127180.9   969267.9
  565.500     7.613     8.355     0.324     0.089     0.000  126930.3   966313.1
  566.000     7.603     8.345     0.317     0.087     0.000  123499.5   938978.0
  566.500     7.594     8.316     0.317     0.087     0.000  123220.2   935694.7
  567.000     7.583     8.304     0.314     0.086     0.000  121458.1   920985.8
  567.500     7.571     8.283     0.314     0.086     0.000  121117.5   917015.7
  568.000     7.558     8.269     0.311     0.085     0.000  119172.4   900762.4
  568.500     7.545     8.246     0.311     0.085     0.000  118783.8   896270.1
  569.000     7.531     8.230     0.308     0.084     0.000  116967.1   880888.3
  569.500     7.516     8.206     0.308     0.084     0.000  116534.5   875929.1
  570.000     7.501     8.189     0.306     0.083     0.000  115154.5   863747.4
  570.500     7.485     8.166     0.306     0.083     0.000  114674.7   858294.1
  571.000     7.467     8.147     0.304     0.083     0.000  113519.4   847704.0
  571.500     7.450     8.124     0.304     0.083     0.000  112998.2   841830.3
  572.000     7.432     8.104     0.303     0.083     0.000  112029.1   832568.0
  572.500     7.413     8.081     0.303     0.083     0.000  111477.2   826400.8
  573.000     7.394     8.061     0.303     0.083     0.000  110740.2   818839.0
  573.500     7.375     8.039     0.303     0.083     0.000  110168.0   812500.7
  574.000     7.356     8.018     0.304     0.083     0.000  109847.1   808012.5
  574.500     7.336     7.998     0.304     0.083     0.000  109259.1   801550.2
  575.000     7.317     7.977     0.304     0.083     0.000  108931.5   797018.6
  575.500     7.297     7.957     0.304     0.083     0.000  108339.7   790564.1
  576.000     7.278     7.936     0.305     0.083     0.000  107909.0   785323.9
  576.500     7.258     7.916     0.305     0.083     0.000  107326.6   779013.6
  577.000     7.239     7.895     0.305     0.083     0.000  106806.8   773212.5
  577.500     7.221     7.875     0.305     0.083     0.000  106246.6   767177.2
  578.000     7.203     7.855     0.305     0.083     0.000  105811.3   762111.7
  578.500     7.185     7.836     0.305     0.083     0.000  105283.8   756451.8
  579.000     7.168     7.818     0.305     0.083     0.000  104744.7   750797.9
  579.500     7.152     7.800     0.305     0.083     0.000  104266.6   745682.6
  580.000     7.136     7.783     0.305     0.083     0.000  103876.4   741303.1
  580.500     7.122     7.768     0.305     0.083     0.000  103458.8   736840.8
  581.000     7.109     7.754     0.305     0.083     0.000  103170.7   733425.7
  581.500     7.097     7.741     0.305     0.083     0.000  102824.4   729724.3
  582.000     7.086     7.729     0.306     0.083     0.000  102630.4   727243.9
  582.500     7.077     7.720     0.306     0.083     0.000  102363.5   724383.2
  583.000     7.069     7.711     0.306     0.083     0.000  102352.7   723483.1
  583.500     7.062     7.705     0.306     0.083     0.000  102167.5   721484.7
  584.000     7.057     7.699     0.307     0.084     0.000  102242.0   721470.4
  584.500     7.053     7.696     0.307     0.084     0.000  102139.5   720342.8
  585.000     7.050     7.694     0.307     0.084     0.000  102131.4   720028.5
  585.500     7.049     7.693     0.307     0.084     0.000  102112.7   719779.9
  586.000     7.049     7.693     0.307     0.084     0.000  102147.6   720049.3
  586.500     7.051     7.695     0.307     0.084     0.000  102207.5   720627.5
  587.000     7.053     7.698     0.307     0.084     0.000  102324.2   721732.5
  587.500     7.057     7.702     0.307     0.084     0.000  102454.5   723051.5
  588.000     7.062     7.707     0.307     0.084     0.000  102563.9   724333.7
  588.500     7.068     7.714     0.307     0.084     0.000  102756.4   726307.6
  589.000     7.075     7.721     0.307     0.084     0.000  102915.5   728139.0
  589.500     7.083     7.729     0.307     0.084     0.000  103160.6   730668.7
  590.000     7.091     7.738     0.307     0.084     0.000  103429.2   733443.2
  590.500     7.100     7.748     0.307     0.084     0.000  103717.9   736433.4
  591.000     7.110     7.759     0.306     0.084     0.000  103921.4   738885.8
  591.500     7.120     7.769     0.306     0.084     0.000  104248.4   742286.5
  592.000     7.131     7.781     0.306     0.083     0.000  104308.4   743841.6
  592.500     7.143     7.792     0.306     0.083     0.000  104668.7   747606.8
  593.000     7.154     7.805     0.304     0.083     0.000  104558.0   748048.1
  593.500     7.167     7.815     0.304     0.083     0.000  104942.8   752095.7
  594.000     7.179     7.829     0.303     0.083     0.000  104670.4   751448.6
  594.500     7.192     7.839     0.303     0.083     0.000  105065.8   755640.0
  595.000     7.205     7.853     0.301     0.082     0.000  104638.1   753893.9
  595.500     7.218     7.862     0.301     0.082     0.000  105027.0   758050.6
  596.000     7.230     7.875     0.299     0.081     0.000  104581.0   756130.2
  596.500     7.242     7.884     0.299     0.081     0.000  104945.0   760052.7
  597.000     7.254     7.896     0.298     0.081     0.000  104747.7   759833.6
  597.500     7.265     7.905     0.298     0.081     0.000  105068.9   763322.2
  598.000     7.275     7.916     0.297     0.081     0.000  105089.0   764530.1
  598.500     7.284     7.924     0.297     0.081     0.000  105356.6   767457.3
  599.000     7.293     7.933     0.296     0.081     0.000  105370.6   768435.6
  599.500     7.300     7.940     0.296     0.081     0.000  105583.0   770773.1
  600.000     7.307     7.947     0.296     0.080     0.000  105574.6   771397.0
  600.500     7.312     7.952     0.296     0.080     0.000  105733.7   773156.6
  601.000     7.317     7.957     0.295     0.080     0.000  105653.0   773066.7
  601.500     7.321     7.960     0.295     0.080     0.000  105764.2   774303.1
  602.000     7.324     7.964     0.295     0.080     0.000  105585.1   773329.4
  602.500     7.327     7.965     0.295     0.080     0.000  105656.3   774129.6
  603.000     7.329     7.967     0.294     0.080     0.000  105342.3   772037.5
  603.500     7.330     7.967     0.294     0.080     0.000  105382.2   772499.7
  604.000     7.332     7.968     0.292     0.079     0.000  104674.0   767419.0
  604.500     7.332     7.965     0.292     0.079     0.000  104691.4   767646.0
  605.000     7.333     7.965     0.291     0.079     0.000  103947.7   762227.5
  605.500     7.333     7.961     0.291     0.079     0.000  103935.7   762146.4
  606.000     7.332     7.960     0.289     0.078     0.000  103198.6   756656.0
  606.500     7.331     7.954     0.289     0.078     0.000  103141.0   756081.9
  607.000     7.328     7.951     0.287     0.078     0.000  102371.8   750161.4
  607.500     7.324     7.943     0.287     0.078     0.000  102250.8   748887.9
  608.000     7.319     7.937     0.286     0.078     0.000  101585.1   743466.3
  608.500     7.312     7.927     0.286     0.078     0.000  101388.6   741348.2
  609.000     7.304     7.918     0.285     0.077     0.000  100764.3   735944.5
  609.500     7.294     7.905     0.285     0.077     0.000  100497.9   733038.0
  610.000     7.283     7.893     0.285     0.077     0.000   99976.1   728151.4
  610.500     7.272     7.879     0.285     0.077     0.000   99662.4   724709.6
  611.000     7.259     7.866     0.285     0.077     0.000   99284.4   720751.2
  611.500     7.247     7.852     0.285     0.077     0.000   98956.9   717151.9
  612.000     7.235     7.839     0.285     0.077     0.000   98645.5   713693.5
  612.500     7.223     7.826     0.285     0.077     0.000   98337.6   710313.7
  613.000     7.212     7.814     0.285     0.077     0.000   98135.7   707769.9
  613.500     7.202     7.804     0.285     0.077     0.000   97864.1   704794.1
  614.000     7.192     7.793     0.284     0.077     0.000   97377.7   700345.5
  614.500     7.183     7.782     0.284     0.077     0.000   97141.9   697768.0
  615.000     7.174     7.772     0.284     0.077     0.000   96662.1   693463.7
  615.500     7.165     7.761     0.284     0.077     0.000   96433.7   690972.8
  616.000     7.156     7.751     0.283     0.077     0.000   95881.7   686124.3
  616.500     7.146     7.738     0.283     0.077     0.000   95626.0   683347.4
  617.000     7.135     7.727     0.282     0.076     0.000   95106.4   678597.0
  617.500     7.123     7.712     0.282     0.076     0.000   94795.7   675251.7
  618.000     7.110     7.698     0.282     0.076     0.000   94225.3   669959.6
  618.500     7.096     7.682     0.282     0.076     0.000   93857.2   666036.8
  619.000     7.082     7.666     0.281     0.076     0.000   93371.7   661223.2
  619.500     7.067     7.649     0.281     0.076     0.000   92971.2   656999.4
  620.000     7.052     7.633     0.282     0.076     0.000   92633.8   653249.0
  620.500     7.038     7.618     0.282     0.076     0.000   92254.3   649285.0
  621.000     7.026     7.605     0.282     0.076     0.000   92114.1   647153.4
  621.500     7.015     7.595     0.282     0.076     0.000   91828.5   644202.5
  622.000     7.008     7.587     0.284     0.077     0.000   92211.6   646217.4
  622.500     7.004     7.587     0.284     0.077     0.000   92087.9   644979.7
  623.000     7.004     7.587     0.285     0.077     0.000   92590.2   648503.5
  623.500     7.008     7.594     0.285     0.077     0.000   92676.2   649478.9
  624.000     7.016     7.603     0.286     0.078     0.000   93274.3   654433.6
  624.500     7.028     7.618     0.286     0.078     0.000   93559.6   657521.4
  625.000     7.042     7.634     0.287     0.078     0.000   94131.6   662905.3
  625.500     7.059     7.653     0.287     0.078     0.000   94541.4   667322.5
  626.000     7.075     7.671     0.287     0.078     0.000   95079.8   672726.6
  626.500     7.092     7.690     0.287     0.078     0.000   95502.7   677281.0
  627.000     7.107     7.706     0.287     0.078     0.000   95793.6   680778.1
  627.500     7.120     7.719     0.287     0.078     0.000   96136.2   684461.2
  628.000     7.130     7.731     0.286     0.077     0.000   96116.5   685341.8
  628.500     7.139     7.738     0.286     0.077     0.000   96342.9   687770.1
  629.000     7.145     7.745     0.285     0.077     0.000   96176.4   687194.4
  629.500     7.150     7.748     0.285     0.077     0.000   96308.8   688620.3
  630.000     7.154     7.753     0.284     0.077     0.000   95921.3   686227.4
  630.500     7.158     7.754     0.284     0.077     0.000   96014.8   687256.1
  631.000     7.162     7.758     0.283     0.077     0.000   95703.4   685382.1
  631.500     7.166     7.760     0.283     0.077     0.000   95803.4   686507.2
  632.000     7.171     7.765     0.282     0.076     0.000   95594.7   685466.8
  632.500     7.176     7.769     0.282     0.076     0.000   95721.6   686903.9
  633.000     7.182     7.775     0.281     0.076     0.000   95575.4   686428.8
  633.500     7.189     7.781     0.281     0.076     0.000   95727.3   688147.8
  634.000     7.195     7.788     0.281     0.076     0.000   95651.0   688250.9
  634.500     7.203     7.794     0.281     0.076     0.000   95816.6   690119.8
  635.000     7.210     7.802     0.280     0.076     0.000   95827.5   690877.5
  635.500     7.217     7.809     0.280     0.076     0.000   95998.2   692795.5
  636.000     7.224     7.816     0.280     0.076     0.000   96179.2   694785.0
  636.500     7.231     7.824     0.280     0.076     0.000   96351.8   696711.2
  637.000     7.238     7.832     0.281     0.076     0.000   96669.3   699683.9
  637.500     7.245     7.840     0.281     0.076     0.000   96844.0   701614.9
  638.000     7.252     7.847     0.281     0.076     0.000   97272.4   705383.3
  638.500     7.258     7.856     0.281     0.076     0.000   97447.8   707298.7
  639.000     7.265     7.863     0.282     0.076     0.000   98073.2   712474.4
  639.500     7.271     7.872     0.282     0.076     0.000   98243.0   714304.4
  640.000     7.277     7.879     0.284     0.077     0.000   98978.4   720236.1
  640.500     7.282     7.888     0.284     0.077     0.000   99135.7   721914.8
  641.000     7.287     7.894     0.286     0.078     0.000  100239.5   730478.1
  641.500     7.292     7.905     0.286     0.078     0.000  100373.9   731912.5
  642.000     7.296     7.909     0.289     0.078     0.000  101555.6   740983.6
  642.500     7.300     7.920     0.289     0.078     0.000  101664.3   742164.9
  643.000     7.304     7.924     0.291     0.079     0.000  102930.5   751810.1
  643.500     7.307     7.935     0.291     0.079     0.000  103015.9   752776.1
  644.000     7.311     7.939     0.294     0.080     0.000  104349.0   762893.2
  644.500     7.314     7.950     0.294     0.080     0.000  104423.4   763771.6
  645.000     7.318     7.954     0.297     0.081     0.000  105843.2   774557.2
  645.500     7.322     7.966     0.297     0.081     0.000  105930.4   775589.9
  646.000     7.326     7.971     0.300     0.082     0.000  107327.6   786327.1
  646.500     7.332     7.985     0.300     0.082     0.000  107459.6   787842.4
  647.000     7.338     7.992     0.303     0.083     0.000  108850.8   798744.5
  647.500     7.345     8.007     0.303     0.083     0.000  109050.6   800981.4
  648.000     7.353     8.016     0.306     0.083     0.000  110303.9   811117.8
  648.500     7.363     8.032     0.306     0.083     0.000  110576.3   814121.2
  649.000     7.373     8.043     0.307     0.084     0.000  111573.3   822591.1
  649.500     7.383     8.059     0.307     0.084     0.000  111906.2   826227.1
  650.000     7.394     8.071     0.308     0.084     0.000  112529.3   832092.6
  650.500     7.406     8.085     0.308     0.084     0.000  112907.1   836197.1
  651.000     7.418     8.098     0.308     0.084     0.000  113295.3   840435.1
  651.500     7.430     8.112     0.308     0.084     0.000  113704.3   844876.9
  652.000     7.443     8.126     0.307     0.084     0.000  113690.2   846210.3
  652.500     7.456     8.137     0.307     0.084     0.000  114122.0   850920.2
  653.000     7.469     8.152     0.305     0.083     0.000  113971.7   851299.2
  653.500     7.483     8.163     0.305     0.083     0.000  114408.5   856098.7
  654.000     7.496     8.177     0.304     0.083     0.000  114374.9   857349.6
  654.500     7.509     8.188     0.304     0.083     0.000  114788.2   861932.0
  655.000     7.521     8.202     0.303     0.083     0.000  114719.4   862818.9
  655.500     7.533     8.212     0.303     0.083     0.000  115084.9   866910.8
  656.000     7.543     8.224     0.303     0.083     0.000  115150.5   868637.7
  656.500     7.553     8.233     0.303     0.083     0.000  115455.4   872079.4
  657.000     7.562     8.242     0.302     0.082     0.000  115578.0   874040.7
  657.500     7.571     8.251     0.302     0.082     0.000  115829.8   876898.0
  658.000     7.578     8.259     0.303     0.082     0.000  116087.6   879723.2
  658.500     7.585     8.266     0.303     0.082     0.000  116301.0   882144.6
  659.000     7.591     8.273     0.303     0.082     0.000  116570.1   884928.1
  659.500     7.597     8.280     0.303     0.082     0.000  116750.9   886970.7
  660.000     7.602     8.286     0.303     0.083     0.000  117098.9   890203.0
  660.500     7.606     8.291     0.303     0.083     0.000  117231.8   891685.2
  661.000     7.609     8.294     0.303     0.083     0.000  117511.2   894156.1
  661.500     7.611     8.297     0.303     0.083     0.000  117573.4   894814.7
  662.000     7.611     8.297     0.304     0.083     0.000  117681.2   895662.3
  662.500     7.610     8.296     0.304     0.083     0.000  117661.5   895372.7
  663.000     7.607     8.294     0.304     0.083     0.000  117681.4   895236.8
  663.500     7.604     8.290     0.304     0.083     0.000  117591.7   894140.7
  664.000     7.600     8.286     0.304     0.083     0.000  117580.1   893556.6
  664.500     7.595     8.281     0.304     0.083     0.000  117458.2   892092.5
  665.000     7.591     8.277     0.304     0.083     0.000  117375.9   890950.9
  665.500     7.587     8.273     0.304     0.083     0.000  117278.8   889775.2
  666.000     7.584     8.270     0.304     0.083     0.000  117063.0   887836.8
  666.500     7.583     8.268     0.304     0.083     0.000  117053.5   887668.4
  667.000     7.585     8.269     0.303     0.083     0.000  116878.2   886482.7
  667.500     7.588     8.272     0.303     0.083     0.000  117005.3   887887.5
  668.000     7.595     8.279     0.303     0.083     0.000  117097.9   889338.4
  668.500     7.604     8.289     0.303     0.083     0.000  117386.1   892610.6
  669.000     7.616     8.302     0.303     0.082     0.000  117569.0   895414.4
  669.500     7.631     8.317     0.303     0.082     0.000  118020.3   900598.8
  670.000     7.648     8.336     0.302     0.082     0.000  118374.0   905342.7
  670.500     7.668     8.356     0.302     0.082     0.000  118962.6   912165.4
  671.000     7.689     8.379     0.302     0.082     0.000  119515.7   918943.9
  671.500     7.711     8.403     0.302     0.082     0.000  120194.5   926872.3
  672.000     7.735     8.428     0.302     0.082     0.000  120795.1   934316.6
  672.500     7.758     8.454     0.302     0.082     0.000  121507.4   942692.5
  673.000     7.782     8.479     0.302     0.082     0.000  122205.2   950959.5
  673.500     7.804     8.504     0.302     0.082     0.000  122890.9   959078.1
  674.000     7.826     8.527     0.302     0.082     0.000  123629.3   967501.4
  674.500     7.846     8.549     0.302     0.082     0.000  124233.1   974708.3
  675.000     7.864     8.569     0.302     0.082     0.000  124968.8   982746.5
  675.500     7.880     8.587     0.302     0.082     0.000  125442.9   988466.4
  676.000     7.893     8.602     0.303     0.082     0.000  125878.6   993593.6
  676.500     7.904     8.614     0.303     0.082     0.000  126188.8   997402.2
  677.000     7.912     8.623     0.303     0.082     0.000  126524.1  1001053.7
  677.500     7.917     8.629     0.303     0.082     0.000  126645.3  1002623.2
  678.000     7.919     8.631     0.303     0.083     0.000  126926.2  1005066.2
  678.500     7.917     8.630     0.303     0.083     0.000  126851.7  1004284.7
  679.000     7.913     8.625     0.304     0.083     0.000  127040.3  1005210.7
  679.500     7.905     8.619     0.304     0.083     0.000  126790.2  1002293.3
  680.000     7.895     8.609     0.305     0.083     0.000  126881.5  1001775.5
  680.500     7.883     8.598     0.305     0.083     0.000  126503.0   997274.9
  681.000     7.870     8.583     0.306     0.084     0.000  126854.7   998352.2
  681.500     7.855     8.572     0.306     0.084     0.000  126404.9   992953.8
  682.000     7.840     8.555     0.308     0.084     0.000  126735.7   993655.1
  682.500     7.825     8.543     0.308     0.084     0.000  126281.3   988170.7
  683.000     7.811     8.527     0.310     0.085     0.000  126698.2   989593.7
  683.500     7.797     8.517     0.310     0.085     0.000  126287.1   984613.4
  684.000     7.784     8.503     0.312     0.085     0.000  127257.6   990554.1
  684.500     7.771     8.497     0.312     0.085     0.000  126894.7   986160.5
  685.000     7.760     8.485     0.315     0.086     0.000  127850.9   992160.5
  685.500     7.749     8.480     0.315     0.086     0.000  127518.5   988165.1
  686.000     7.739     8.468     0.316     0.087     0.000  127806.7   989049.7
  686.500     7.728     8.460     0.316     0.087     0.000  127473.1   985088.2
  687.000     7.717     8.448     0.317     0.087     0.000  127690.7   985342.0
  687.500     7.704     8.438     0.317     0.087     0.000  127298.3   980741.9
  688.000     7.691     8.423     0.318     0.087     0.000  127198.3   978248.5
  688.500     7.675     8.408     0.318     0.087     0.000  126704.8   972518.6
  689.000     7.658     8.389     0.318     0.087     0.000  126309.3   967334.6
  689.500     7.639     8.369     0.318     0.087     0.000  125693.4   960233.6
  690.000     7.619     8.346     0.319     0.087     0.000  125353.4   955018.0
  690.500     7.596     8.323     0.319     0.087     0.000  124607.7   946472.6
  691.000     7.571     8.296     0.319     0.088     0.000  123935.4   938295.5
  691.500     7.544     8.268     0.319     0.088     0.000  123080.7   928562.7
  692.000     7.516     8.237     0.320     0.088     0.000  122249.6   918872.5
  692.500     7.487     8.205     0.320     0.088     0.000  121312.0   908269.8
  693.000     7.457     8.172     0.319     0.087     0.000  120253.7   896691.8
  693.500     7.425     8.137     0.319     0.087     0.000  119264.3   885590.4
  694.000     7.394     8.102     0.319     0.087     0.000  118050.3   872807.7
  694.500     7.361     8.066     0.319     0.087     0.000  117037.3   861536.2
  695.000     7.329     8.030     0.318     0.087     0.000  115719.7   848059.3
  695.500     7.296     7.992     0.318     0.087     0.000  114708.4   836906.6
  696.000     7.263     7.957     0.317     0.087     0.000  113231.4   822442.3
  696.500     7.231     7.919     0.317     0.087     0.000  112250.1   811720.4
  697.000     7.200     7.884     0.316     0.086     0.000  110748.4   797368.8
  697.500     7.169     7.848     0.316     0.086     0.000  109825.9   787385.4
  698.000     7.140     7.816     0.314     0.086     0.000  108278.0   773107.1
  698.500     7.112     7.781     0.314     0.086     0.000  107449.4   764225.9
  699.000     7.087     7.753     0.313     0.085     0.000  105977.2   751009.7
  699.500     7.063     7.723     0.313     0.085     0.000  105276.7   743575.2
  700.000     7.042     7.700     0.311     0.085     0.000  103869.9   731439.8
  700.500     7.024     7.675     0.311     0.085     0.000  103328.5   725751.4
  701.000     7.008     7.658     0.309     0.084     0.000  102118.0   715673.7
  701.500     6.996     7.640     0.309     0.084     0.000  101752.9   711880.0
  702.000     6.987     7.630     0.307     0.084     0.000  100716.6   703693.3
  702.500     6.981     7.619     0.307     0.084     0.000  100528.0   701764.7
  703.000     6.977     7.615     0.305     0.083     0.000   99735.0   695879.1
  703.500     6.976     7.610     0.305     0.083     0.000   99700.9   695562.5
  704.000     6.978     7.611     0.303     0.082     0.000   98694.1   688651.4
  704.500     6.981     7.608     0.303     0.082     0.000   98780.4   689578.5
  705.000     6.985     7.613     0.300     0.082     0.000   97903.6   683881.3
  705.500     6.991     7.612     0.300     0.082     0.000   98057.0   685494.4
  706.000     6.996     7.619     0.298     0.081     0.000   97262.2   680488.9
  706.500     7.002     7.619     0.298     0.081     0.000   97433.4   682277.1
  707.000     7.008     7.625     0.296     0.080     0.000   96948.8   679428.4
  707.500     7.014     7.627     0.296     0.080     0.000   97104.5   681051.0
  708.000     7.019     7.632     0.294     0.080     0.000   96680.9   678559.5
  708.500     7.024     7.634     0.294     0.080     0.000   96820.9   680023.4
  709.000     7.028     7.640     0.293     0.080     0.000   96521.7   678392.9
  709.500     7.034     7.643     0.293     0.080     0.000   96670.2   679957.1
  710.000     7.040     7.649     0.292     0.079     0.000   96321.1   678075.1
  710.500     7.047     7.654     0.292     0.079     0.000   96514.3   680124.3
  711.000     7.055     7.663     0.291     0.079     0.000   96324.9   679581.9
  711.500     7.065     7.671     0.291     0.079     0.000   96584.9   682349.8
  712.000     7.076     7.682     0.284     0.077     0.000   94219.8   666660.5
  712.500     7.089     7.680     0.284     0.077     0.000   94572.3   670420.7
  713.000     7.103     7.695     0.283     0.077     0.000   94549.3   671575.1
  713.500     7.117     7.708     0.283     0.077     0.000   94925.5   675602.3
  714.000     7.131     7.723     0.281     0.076     0.000   94484.2   673770.2
  714.500     7.144     7.733     0.281     0.076     0.000   94836.0   677548.2
  715.000     7.156     7.746     0.279     0.075     0.000   94347.4   675182.0
  715.500     7.167     7.752     0.279     0.075     0.000   94623.6   678155.7
  716.000     7.175     7.761     0.277     0.075     0.000   93921.3   673909.2
  716.500     7.182     7.763     0.277     0.075     0.000   94097.1   675799.2
  717.000     7.186     7.768     0.275     0.074     0.000   93473.6   671741.1
  717.500     7.189     7.766     0.275     0.074     0.000   93555.8   672613.3
  718.000     7.191     7.768     0.273     0.074     0.000   92694.2   666554.1
  718.500     7.192     7.763     0.273     0.074     0.000   92725.8   666871.4
  719.000     7.192     7.764     0.270     0.073     0.000   91700.9   659541.7
  719.500     7.193     7.758     0.270     0.073     0.000   91735.9   659892.3
  720.000     7.195     7.760     0.267     0.072     0.000   90609.7   651927.3
  720.500     7.198     7.756     0.267     0.072     0.000   90692.6   652796.8
  721.000     7.202     7.760     0.264     0.071     0.000   89539.1   644853.0
  721.500     7.208     7.759     0.264     0.071     0.000   89693.2   646494.5
  722.000     7.215     7.767     0.261     0.070     0.000   88582.0   639110.9
  722.500     7.224     7.768     0.261     0.070     0.000   88808.2   641536.2
  723.000     7.234     7.779     0.258     0.069     0.000   87974.6   636380.4
  723.500     7.245     7.784     0.258     0.069     0.000   88255.2   639402.2
  724.000     7.257     7.797     0.256     0.069     0.000   87895.2   637826.1
  724.500     7.269     7.806     0.256     0.069     0.000   88202.8   641153.7
  725.000     7.282     7.820     0.255     0.068     0.000   87981.4   640641.2
  725.500     7.294     7.830     0.255     0.068     0.000   88292.4   644020.3
  726.000     7.306     7.843     0.254     0.068     0.000   88132.8   643938.0
  726.500     7.318     7.853     0.254     0.068     0.000   88427.7   647157.8
  727.000     7.330     7.866     0.254     0.068     0.000   88884.6   651513.4
  727.500     7.340     7.878     0.254     0.068     0.000   89143.2   654345.3
  728.000     7.350     7.888     0.255     0.068     0.000   89475.1   657648.9
  728.500     7.359     7.898     0.255     0.068     0.000   89692.1   660031.8
  729.000     7.367     7.907     0.255     0.069     0.000   90264.9   664961.9
  729.500     7.374     7.916     0.255     0.069     0.000   90435.4   666837.1
  730.000     7.380     7.923     0.256     0.069     0.000   90879.9   670664.3
  730.500     7.385     7.930     0.256     0.069     0.000   91006.7   672064.7
  731.000     7.389     7.935     0.257     0.069     0.000   91278.6   674474.4
  731.500     7.393     7.940     0.257     0.069     0.000   91366.2   675454.5
  732.000     7.396     7.943     0.257     0.069     0.000   91530.0   676940.3
  732.500     7.398     7.946     0.257     0.069     0.000   91582.8   677547.1
  733.000     7.400     7.948     0.257     0.069     0.000   91679.6   678428.4
  733.500     7.401     7.950     0.257     0.069     0.000   91702.8   678714.3
  734.000     7.402     7.951     0.257     0.069     0.000   91825.4   679694.7
  734.500     7.402     7.952     0.257     0.069     0.000   91825.3   679723.8
  735.000     7.402     7.952     0.257     0.069     0.000   91851.1   679915.0
  735.500     7.402     7.952     0.257     0.069     0.000   91837.9   679794.9
  736.000     7.402     7.951     0.258     0.069     0.000   91975.9   680777.4
  736.500     7.401     7.951     0.258     0.069     0.000   91955.2   680565.6
  737.000     7.400     7.951     0.258     0.069     0.000   92220.0   682456.4
  737.500     7.399     7.951     0.258     0.069     0.000   92192.2   682155.2
  738.000     7.398     7.950     0.259     0.070     0.000   92593.6   685015.7
  738.500     7.396     7.951     0.259     0.070     0.000   92552.4   684555.6
  739.000     7.394     7.948     0.261     0.070     0.000   92975.4   687499.9
  739.500     7.392     7.948     0.261     0.070     0.000   92911.0   686772.8
  740.000     7.389     7.945     0.261     0.070     0.000   93170.6   688392.7
  740.500     7.384     7.943     0.261     0.070     0.000   93072.9   687292.9
  741.000     7.380     7.937     0.262     0.071     0.000   93409.5   689330.3
  741.500     7.374     7.934     0.262     0.071     0.000   93264.0   687704.6
  742.000     7.367     7.926     0.264     0.071     0.000   93567.9   689305.4
  742.500     7.359     7.921     0.264     0.071     0.000   93365.3   687054.9
  743.000     7.350     7.911     0.265     0.071     0.000   93704.2   688694.7
  743.500     7.339     7.903     0.265     0.071     0.000   93439.9   685774.1
  744.000     7.328     7.891     0.267     0.072     0.000   93859.5   687784.0
  744.500     7.315     7.881     0.267     0.072     0.000   93536.7   684232.0
  745.000     7.302     7.867     0.268     0.072     0.000   93932.9   685874.2
  745.500     7.287     7.856     0.268     0.072     0.000   93566.6   681858.6
  746.000     7.273     7.840     0.270     0.073     0.000   93977.3   683480.7
  746.500     7.258     7.829     0.270     0.073     0.000   93590.6   679257.2
  747.000     7.243     7.813     0.272     0.073     0.000   93930.7   680337.4
  747.500     7.228     7.801     0.272     0.073     0.000   93554.1   676239.8
  748.000     7.215     7.786     0.274     0.074     0.000   93759.4   676432.9
  748.500     7.202     7.776     0.274     0.074     0.000   93422.6   672786.6
  749.000     7.190     7.763     0.275     0.074     0.000   93553.0   672625.1
  749.500     7.179     7.754     0.275     0.074     0.000   93273.1   669613.1
  750.000     7.170     7.744     0.275     0.074     0.000   93263.2   668664.7
  750.500     7.161     7.736     0.275     0.074     0.000   93039.1   666277.8
  751.000     7.154     7.728     0.276     0.075     0.000   93106.3   666065.9
  751.500     7.147     7.723     0.276     0.075     0.000   92915.7   664059.0
  752.000     7.140     7.715     0.276     0.075     0.000   92949.6   663693.1
  752.500     7.134     7.710     0.276     0.075     0.000   92765.4   661768.2
  753.000     7.127     7.702     0.277     0.075     0.000   92823.5   661560.9
  753.500     7.120     7.696     0.277     0.075     0.000   92622.8   659467.1
  754.000     7.112     7.688     0.278     0.075     0.000   92721.9   659469.2
  754.500     7.104     7.681     0.278     0.075     0.000   92493.8   657083.7
  755.000     7.095     7.672     0.279     0.075     0.000   92619.4   657170.9
  755.500     7.086     7.664     0.279     0.075     0.000   92364.3   654499.5
  756.000     7.076     7.653     0.279     0.076     0.000   92334.7   653400.9
  756.500     7.066     7.644     0.279     0.076     0.000   92063.6   650566.4
  757.000     7.056     7.633     0.280     0.076     0.000   91977.6   649037.8
  757.500     7.046     7.624     0.280     0.076     0.000   91702.4   646174.8
  758.000     7.037     7.613     0.280     0.076     0.000   91516.2   643963.1
  758.500     7.027     7.603     0.280     0.076     0.000   91251.4   641231.2
  759.000     7.018     7.593     0.280     0.076     0.000   90981.9   638519.8
  759.500     7.010     7.584     0.280     0.076     0.000   90746.6   636120.8
  760.000     7.003     7.577     0.280     0.076     0.000   90624.4   634606.6
  760.500     6.997     7.571     0.280     0.076     0.000   90444.5   632804.7
  761.000     6.992     7.566     0.286     0.077     0.000   92401.9   646102.4
  761.500     6.989     7.576     0.286     0.077     0.000   92283.4   644951.6
  762.000     6.988     7.575     0.286     0.077     0.000   92194.6   644251.8
  762.500     6.990     7.577     0.286     0.077     0.000   92226.5   644677.3
  763.000     6.996     7.583     0.286     0.078     0.000   92567.5   647567.5
  763.500     7.004     7.594     0.286     0.078     0.000   92776.1   649837.5
  764.000     7.016     7.607     0.287     0.078     0.000   93351.6   654996.0
  764.500     7.031     7.625     0.287     0.078     0.000   93736.3   659104.0
  765.000     7.049     7.644     0.287     0.078     0.000   94350.0   665097.7
  765.500     7.069     7.667     0.287     0.078     0.000   94880.2   670730.0
  766.000     7.091     7.690     0.288     0.078     0.000   95524.0   677356.0
  766.500     7.114     7.715     0.288     0.078     0.000   96146.2   683965.8
  767.000     7.137     7.741     0.287     0.078     0.000   96689.0   690097.5
  767.500     7.161     7.766     0.287     0.078     0.000   97342.9   697064.2
  768.000     7.184     7.791     0.287     0.078     0.000   97853.1   702989.1
  768.500     7.207     7.814     0.287     0.078     0.000   98481.2   709712.4
  769.000     7.228     7.837     0.287     0.078     0.000   98906.7   714876.2
  769.500     7.248     7.858     0.287     0.078     0.000   99463.2   720863.5
  770.000     7.265     7.877     0.286     0.078     0.000   99915.9   725937.3
  770.500     7.281     7.894     0.286     0.078     0.000  100368.7   730832.2
  771.000     7.295     7.909     0.286     0.078     0.000  100789.0   735295.9
  771.500     7.307     7.922     0.286     0.078     0.000  101125.4   738947.5
  772.000     7.317     7.933     0.288     0.078     0.000  101875.7   745436.4
  772.500     7.325     7.944     0.288     0.078     0.000  102099.9   747876.9
  773.000     7.331     7.951     0.289     0.078     0.000  102800.4   753664.6
  773.500     7.336     7.960     0.289     0.078     0.000  102943.8   755229.6
  774.000     7.341     7.965     0.290     0.079     0.000  103603.1   760515.6
  774.500     7.344     7.972     0.290     0.079     0.000  103711.0   761699.0
  775.000     7.348     7.976     0.290     0.079     0.000  103765.9   762511.3
  775.500     7.353     7.981     0.290     0.079     0.000  103891.9   763902.3
  776.000     7.358     7.986     0.292     0.079     0.000  105121.9   773493.1
  776.500     7.363     7.999     0.292     0.079     0.000  105274.3   775181.2
  777.000     7.370     8.006     0.293     0.080     0.000  105817.2   779846.1
  777.500     7.377     8.015     0.293     0.080     0.000  106016.7   782054.8
  778.000     7.384     8.024     0.294     0.080     0.000  106734.9   788181.3
  778.500     7.393     8.036     0.294     0.080     0.000  106973.7   790817.9
  779.000     7.401     8.045     0.294     0.080     0.000  107052.8   792341.6
  779.500     7.411     8.054     0.294     0.080     0.000  107332.3   795418.8
  780.000     7.421     8.065     0.294     0.080     0.000  107611.8   798549.4
  780.500     7.431     8.076     0.294     0.080     0.000  107920.1   801942.0
  781.000     7.441     8.088     0.295     0.080     0.000  108599.7   808139.0
  781.500     7.452     8.101     0.295     0.080     0.000  108921.9   811691.1
  782.000     7.463     8.113     0.296     0.080     0.000  109743.1   818994.2
  782.500     7.473     8.127     0.296     0.080     0.000  110065.9   822566.7
  783.000     7.484     8.139     0.297     0.081     0.000  111045.3   831059.7
  783.500     7.494     8.154     0.297     0.081     0.000  111352.3   834475.3
  784.000     7.504     8.164     0.299     0.081     0.000  112481.2   844039.3
  784.500     7.513     8.179     0.299     0.081     0.000  112754.8   847101.4
  785.000     7.521     8.188     0.301     0.082     0.000  113994.8   857383.8
  785.500     7.529     8.202     0.301     0.082     0.000  114217.2   859886.1
  786.000     7.535     8.209     0.304     0.083     0.000  115391.8   869483.5
  786.500     7.540     8.220     0.304     0.083     0.000  115547.4   871239.1
  787.000     7.544     8.225     0.306     0.083     0.000  116565.8   879393.0
  787.500     7.547     8.233     0.306     0.083     0.000  116642.5   880255.8
  788.000     7.548     8.234     0.307     0.084     0.000  117427.9   886338.4
  788.500     7.548     8.238     0.307     0.084     0.000  117424.3   886282.3
  789.000     7.546     8.237     0.308     0.084     0.000  117943.9   890055.7
  789.500     7.544     8.237     0.308     0.084     0.000  117873.1   889225.9
  790.000     7.541     8.234     0.309     0.084     0.000  117863.3   888771.8
  790.500     7.537     8.230     0.309     0.084     0.000  117754.4   887500.8
  791.000     7.533     8.226     0.309     0.084     0.000  117620.6   885996.9
  791.500     7.528     8.221     0.309     0.084     0.000  117494.1   884519.7
  792.000     7.524     8.216     0.308     0.084     0.000  117215.9   881882.0
  792.500     7.519     8.210     0.308     0.084     0.000  117082.9   880333.3
  793.000     7.514     8.204     0.308     0.084     0.000  116854.4   878052.0
  793.500     7.509     8.198     0.308     0.084     0.000  116710.6   876394.2
  794.000     7.504     8.193     0.308     0.084     0.000  116518.2   874345.3
  794.500     7.498     8.186     0.308     0.084     0.000  116352.5   872465.3
  795.000     7.493     8.180     0.308     0.084     0.000  116310.6   871469.8
  795.500     7.486     8.174     0.308     0.084     0.000  116107.8   869205.4
  796.000     7.479     8.166     0.308     0.084     0.000  115957.5   867274.1
  796.500     7.472     8.158     0.308     0.084     0.000  115709.9   864540.2
  797.000     7.463     8.149     0.309     0.084     0.000  115637.9   863042.7
  797.500     7.454     8.141     0.309     0.084     0.000  115336.4   859735.0
  798.000     7.444     8.130     0.309     0.085     0.000  115278.9   858158.4
  798.500     7.433     8.119     0.309     0.085     0.000  114918.3   854212.9
  799.000     7.421     8.106     0.310     0.085     0.000  114826.3   852167.1
  799.500     7.408     8.094     0.310     0.085     0.000  114403.4   847543.7
  800.000     7.394     8.079     0.311     0.085     0.000  114249.6   844809.2
  800.500     7.379     8.064     0.311     0.085     0.000  113762.7   839484.0
  801.000     7.363     8.046     0.311     0.085     0.000  113401.0   834982.0
  801.500     7.346     8.028     0.311     0.085     0.000  112856.9   829027.6
  802.000     7.328     8.008     0.311     0.085     0.000  112287.8   822802.8
  802.500     7.309     7.988     0.311     0.085     0.000  111697.2   816343.6
  803.000     7.289     7.966     0.311     0.085     0.000  110897.8   808302.7
  803.500     7.268     7.943     0.311     0.085     0.000  110281.1   801570.8
  804.000     7.248     7.920     0.310     0.085     0.000  109268.3   791952.6
  804.500     7.227     7.895     0.310     0.085     0.000  108653.9   785268.6
  805.000     7.207     7.873     0.309     0.084     0.000  107654.9   775852.6
  805.500     7.187     7.849     0.309     0.084     0.000  107074.5   769562.9
  806.000     7.168     7.828     0.307     0.084     0.000  105922.5   759287.5
  806.500     7.151     7.806     0.307     0.084     0.000  105421.7   753885.3
  807.000     7.136     7.789     0.306     0.083     0.000  104322.1   744407.5
  807.500     7.123     7.771     0.306     0.083     0.000  103949.6   740414.1
  808.000     7.113     7.760     0.305     0.083     0.000  103125.0   733490.0
  808.500     7.106     7.749     0.305     0.083     0.000  102924.6   731365.1
  809.000     7.102     7.745     0.303     0.083     0.000  102373.7   727097.7
  809.500     7.103     7.743     0.303     0.083     0.000  102374.3   727136.5
  810.000     7.107     7.747     0.302     0.082     0.000  102099.2   725572.4
  810.500     7.114     7.753     0.302     0.082     0.000  102302.4   727772.6
  811.000     7.124     7.764     0.294     0.080     0.000   99216.5   706855.4
  811.500     7.140     7.760     0.294     0.080     0.000   99635.8   711360.2
  812.000     7.157     7.779     0.293     0.080     0.000   99838.8   714539.0
  812.500     7.176     7.798     0.293     0.080     0.000  100373.0   720283.3
  813.000     7.196     7.820     0.292     0.079     0.000  100359.6   722231.1
  813.500     7.218     7.840     0.292     0.079     0.000  100966.8   728786.6
  814.000     7.240     7.864     0.290     0.079     0.000  100963.9   731019.2
  814.500     7.264     7.885     0.290     0.079     0.000  101618.0   738118.0
  815.000     7.287     7.911     0.289     0.078     0.000  101616.0   740512.3
  815.500     7.312     7.933     0.289     0.078     0.000  102309.6   748075.2
  816.000     7.337     7.960     0.287     0.078     0.000  102206.3   749856.0
  816.500     7.362     7.983     0.287     0.078     0.000  102933.4   757809.4
  817.000     7.387     8.010     0.285     0.077     0.000  102955.4   760573.2
  817.500     7.413     8.033     0.285     0.077     0.000  103684.5   768563.7
  818.000     7.436     8.059     0.283     0.077     0.000  103580.8   770278.5
  818.500     7.459     8.079     0.283     0.077     0.000  104250.8   777628.3
  819.000     7.479     8.101     0.281     0.076     0.000  103915.5   777234.0
  819.500     7.497     8.115     0.281     0.076     0.000  104447.9   783074.3
  820.000     7.511     8.130     0.279     0.075     0.000  103892.6   780384.6
  820.500     7.522     8.136     0.279     0.075     0.000  104223.3   783995.1
  821.000     7.529     8.143     0.277     0.075     0.000  103654.1   780402.8
  821.500     7.532     8.142     0.277     0.075     0.000  103760.0   781513.9
  822.000     7.531     8.141     0.276     0.074     0.000  103033.5   775957.5
  822.500     7.527     8.133     0.276     0.074     0.000  102944.6   774898.7
  823.000     7.521     8.126     0.274     0.074     0.000  102279.0   769209.3
  823.500     7.512     8.113     0.274     0.074     0.000  102055.5   766655.7
  824.000     7.502     8.102     0.274     0.074     0.000  101522.4   761621.9
  824.500     7.491     8.089     0.274     0.074     0.000  101232.6   758341.6
  825.000     7.480     8.077     0.274     0.074     0.000  100885.0   754597.1
  825.500     7.469     8.065     0.274     0.074     0.000  100586.6   751242.5
  826.000     7.458     8.053     0.274     0.074     0.000  100530.2   749750.2
  826.500     7.448     8.044     0.274     0.074     0.000  100259.8   746731.0
  827.000     7.439     8.034     0.275     0.074     0.000  100440.0   747166.9
  827.500     7.431     8.027     0.275     0.074     0.000  100213.6   744657.3
  828.000     7.424     8.020     0.277     0.075     0.000  100592.5   746748.5
  828.500     7.417     8.016     0.277     0.075     0.000  100409.2   744726.6
  829.000     7.411     8.010     0.278     0.075     0.000  100900.5   747793.7
  829.500     7.406     8.008     0.278     0.075     0.000  100751.1   746145.4
  830.000     7.401     8.003     0.280     0.076     0.000  101378.3   750310.1
  830.500     7.396     8.002     0.280     0.076     0.000  101250.2   748887.4
  831.000     7.392     7.998     0.282     0.076     0.000  101927.5   753461.6
  831.500     7.388     7.998     0.282     0.076     0.000  101807.5   752119.7
  832.000     7.383     7.993     0.284     0.077     0.000  102457.8   756483.1
  832.500     7.379     7.992     0.284     0.077     0.000  102330.0   755052.4
  833.000     7.374     7.987     0.285     0.077     0.000  102871.1   758541.7
  833.500     7.368     7.985     0.285     0.077     0.000  102719.3   756850.6
  834.000     7.362     7.979     0.287     0.078     0.000  103180.1   759637.4
  834.500     7.356     7.975     0.287     0.078     0.000  102995.7   757599.5
  835.000     7.349     7.968     0.287     0.078     0.000  103141.2   757968.7
  835.500     7.342     7.962     0.287     0.078     0.000  102942.3   755793.3
  836.000     7.335     7.955     0.290     0.079     0.000  103642.8   760266.0
  836.500     7.329     7.954     0.290     0.079     0.000  103462.5   758324.1
  837.000     7.325     7.950     0.291     0.079     0.000  104037.3   762093.8
  837.500     7.323     7.951     0.291     0.079     0.000  103952.6   761241.1
  838.000     7.324     7.953     0.293     0.080     0.000  104624.2   766264.8
  838.500     7.329     7.962     0.293     0.080     0.000  104719.4   767436.7
  839.000     7.338     7.971     0.295     0.080     0.000  105917.6   777174.3
  839.500     7.351     7.992     0.295     0.080     0.000  106252.2   781034.4
  840.000     7.369     8.011     0.297     0.081     0.000  107595.0   792852.8
  840.500     7.391     8.041     0.297     0.081     0.000  108189.3   799630.4
  841.000     7.417     8.069     0.298     0.081     0.000  109416.5   811570.7
  841.500     7.446     8.104     0.298     0.081     0.000  110232.8   820839.1
  842.000     7.478     8.138     0.299     0.081     0.000  111504.7   833813.8
  842.500     7.510     8.176     0.299     0.081     0.000  112450.5   844525.8
  843.000     7.543     8.211     0.300     0.082     0.000  113740.1   857908.1
  843.500     7.574     8.247     0.300     0.082     0.000  114700.4   868762.1
  844.000     7.604     8.280     0.300     0.082     0.000  115924.6   881494.7
  844.500     7.631     8.311     0.300     0.082     0.000  116795.7   891319.0
  845.000     7.656     8.338     0.301     0.082     0.000  117661.0   900830.4
  845.500     7.678     8.362     0.301     0.082     0.000  118376.7   908884.4
  846.000     7.697     8.383     0.301     0.082     0.000  119195.9   917408.3
  846.500     7.712     8.401     0.301     0.082     0.000  119729.2   923390.6
  847.000     7.725     8.415     0.302     0.082     0.000  120757.1   932879.3
  847.500     7.735     8.429     0.302     0.082     0.000  121111.7   936834.6
  848.000     7.743     8.438     0.304     0.083     0.000  122213.5   946306.3
  848.500     7.748     8.448     0.304     0.083     0.000  122408.9   948453.4
  849.000     7.751     8.452     0.306     0.084     0.000  123649.4   958467.1
  849.500     7.752     8.459     0.306     0.084     0.000  123695.2   958909.8
  850.000     7.751     8.457     0.309     0.085     0.000  125264.2   970931.2
  850.500     7.747     8.462     0.309     0.085     0.000  125149.2   969539.1
  851.000     7.741     8.456     0.313     0.086     0.000  126812.1   981675.1
  851.500     7.732     8.457     0.313     0.086     0.000  126525.5   978329.9
  852.000     7.722     8.445     0.318     0.087     0.000  128271.2   990456.6
  852.500     7.708     8.442     0.318     0.087     0.000  127816.0   985198.7
  853.000     7.693     8.425     0.322     0.088     0.000  129657.9   997447.4
  853.500     7.675     8.420     0.322     0.088     0.000  129057.4   990555.8
  854.000     7.657     8.399     0.327     0.090     0.000  130674.0  1000562.1
  854.500     7.637     8.390     0.327     0.090     0.000  129973.5   992566.9
  855.000     7.616     8.368     0.332     0.091     0.000  131688.1  1002971.3
  855.500     7.594     8.358     0.332     0.091     0.000  130920.8   994263.6
  856.000     7.573     8.334     0.337     0.093     0.000  132580.8  1004000.5
  856.500     7.550     8.323     0.337     0.093     0.000  131769.6   994851.1
  857.000     7.528     8.298     0.342     0.094     0.000  133435.0  1004434.1
  857.500     7.504     8.287     0.342     0.094     0.000  132586.2   994925.3
  858.000     7.481     8.261     0.347     0.096     0.000  134077.6  1003020.0
  858.500     7.457     8.248     0.347     0.096     0.000  133194.7   993200.5
  859.000     7.433     8.222     0.351     0.097     0.000  134395.0   998962.4
  859.500     7.408     8.207     0.351     0.097     0.000  133482.8   988893.7
  860.000     7.384     8.180     0.355     0.098     0.000  134171.6   990740.9
  860.500     7.359     8.162     0.355     0.098     0.000  133242.2   980557.7
  861.000     7.335     8.135     0.357     0.099     0.000  133556.6   979586.1
  861.500     7.310     8.114     0.357     0.099     0.000  132620.8   969399.0
  862.000     7.285     8.087     0.359     0.100     0.000  132591.9   965909.8
  862.500     7.260     8.065     0.359     0.100     0.000  131667.3   955895.7
  863.000     7.236     8.038     0.360     0.100     0.000  131080.3   948434.7
  863.500     7.212     8.013     0.360     0.100     0.000  130203.9   938971.8
  864.000     7.188     7.987     0.360     0.100     0.000  129456.0   930583.3
  864.500     7.166     7.963     0.360     0.100     0.000  128665.7   922058.0
  865.000     7.146     7.940     0.359     0.100     0.000  127554.3   911448.1
  865.500     7.127     7.917     0.359     0.100     0.000  126904.0   904416.3
  866.000     7.110     7.898     0.358     0.099     0.000  125818.3   894571.2
  866.500     7.096     7.879     0.358     0.099     0.000  125354.0   889512.9
  867.000     7.085     7.867     0.357     0.099     0.000  124301.7   880649.7
  867.500     7.077     7.854     0.357     0.099     0.000  124068.3   878047.7
  868.000     7.073     7.850     0.355     0.098     0.000  123234.1   871629.6
  868.500     7.073     7.845     0.355     0.098     0.000  123263.1   871837.0
  869.000     7.077     7.849     0.353     0.098     0.000  122699.7   868330.8
  869.500     7.085     7.854     0.353     0.098     0.000  122995.8   871434.7
  870.000     7.097     7.867     0.352     0.097     0.000  122665.9   870545.8
  870.500     7.112     7.879     0.352     0.097     0.000  123188.7   876151.8
  871.000     7.130     7.899     0.350     0.097     0.000  123024.0   877168.9
  871.500     7.150     7.916     0.350     0.097     0.000  123681.3   884303.7
  872.000     7.170     7.939     0.348     0.096     0.000  123577.6   886073.9
  872.500     7.191     7.957     0.348     0.096     0.000  124248.7   893420.2
  873.000     7.210     7.978     0.346     0.096     0.000  124126.6   894917.6
  873.500     7.227     7.993     0.346     0.096     0.000  124707.5   901314.8
  874.000     7.243     8.010     0.346     0.096     0.000  124897.5   904618.4
  874.500     7.256     8.023     0.346     0.096     0.000  125332.6   909436.2
  875.000     7.267     8.035     0.345     0.095     0.000  125444.8   911639.6
  875.500     7.277     8.044     0.345     0.095     0.000  125748.1   915016.8
  876.000     7.284     8.052     0.345     0.095     0.000  125897.0   917090.6
  876.500     7.291     8.059     0.345     0.095     0.000  126120.9   919597.5
  877.000     7.298     8.066     0.344     0.095     0.000  125774.6   917880.7
  877.500     7.304     8.070     0.344     0.095     0.000  125990.3   920293.6
  878.000     7.311     8.078     0.342     0.095     0.000  125697.4   919015.4
  878.500     7.319     8.083     0.342     0.095     0.000  125947.3   921794.7
  879.000     7.327     8.092     0.342     0.094     0.000  126032.0   923430.9
  879.500     7.336     8.101     0.342     0.094     0.000  126327.6   926696.8
  880.000     7.345     8.111     0.341     0.094     0.000  126332.8   927902.0
  880.500     7.355     8.120     0.341     0.094     0.000  126676.8   931684.2
  881.000     7.365     8.131     0.340     0.094     0.000  126293.8   930172.3
  881.500     7.376     8.139     0.340     0.094     0.000  126684.6   934461.6
  882.000     7.388     8.152     0.338     0.093     0.000  126418.2   933935.2
  882.500     7.400     8.161     0.338     0.093     0.000  126835.9   938530.3
  883.000     7.411     8.174     0.337     0.093     0.000  126637.3   938558.6
  883.500     7.423     8.183     0.337     0.093     0.000  127051.5   943140.9
  884.000     7.435     8.196     0.336     0.092     0.000  126833.4   942954.3
  884.500     7.445     8.204     0.336     0.092     0.000  127200.2   947041.8
  885.000     7.455     8.214     0.335     0.092     0.000  127111.4   947561.0
  885.500     7.462     8.220     0.335     0.092     0.000  127371.9   950483.5
  886.000     7.468     8.226     0.334     0.092     0.000  127274.5   950446.3
  886.500     7.471     8.228     0.334     0.092     0.000  127372.9   951555.2
  887.000     7.471     8.228     0.333     0.092     0.000  126833.8   947528.0
  887.500     7.468     8.221     0.333     0.092     0.000  126744.1   946510.1
  888.000     7.462     8.215     0.332     0.091     0.000  125921.4   939633.5
  888.500     7.454     8.202     0.332     0.091     0.000  125654.2   936600.0
  889.000     7.443     8.190     0.330     0.091     0.000  124569.1   927174.0
  889.500     7.431     8.173     0.330     0.091     0.000  124181.8   922779.6
  890.000     7.417     8.158     0.329     0.090     0.000  123061.3   912805.4
  890.500     7.404     8.139     0.329     0.090     0.000  122641.2   908046.4
  891.000     7.391     8.125     0.327     0.090     0.000  121456.9   897687.6
  891.500     7.379     8.107     0.327     0.090     0.000  121097.5   893623.6
  892.000     7.369     8.096     0.326     0.089     0.000  120276.1   886347.3
  892.500     7.361     8.084     0.326     0.089     0.000  120033.6   883614.1
  893.000     7.356     8.078     0.325     0.089     0.000  119403.4   878281.6
  893.500     7.352     8.071     0.325     0.089     0.000  119296.6   877087.6
  894.000     7.351     8.070     0.324     0.089     0.000  118992.6   874680.7
  894.500     7.351     8.069     0.324     0.089     0.000  119005.4   874837.7
  895.000     7.353     8.071     0.324     0.089     0.000  119066.5   875545.1
  895.500     7.357     8.075     0.324     0.089     0.000  119176.0   876787.6
  896.000     7.362     8.081     0.324     0.089     0.000  119204.2   877604.9
  896.500     7.369     8.087     0.324     0.089     0.000  119411.2   879924.3
  897.000     7.377     8.097     0.324     0.089     0.000  119769.8   883551.5
  897.500     7.387     8.108     0.324     0.089     0.000  120086.6   887072.1
  898.000     7.399     8.121     0.324     0.089     0.000  120369.5   890569.9
  898.500     7.412     8.135     0.324     0.089     0.000  120822.5   895579.3
  899.000     7.428     8.153     0.324     0.089     0.000  121593.2   903207.2
  899.500     7.446     8.173     0.324     0.089     0.000  122186.4   909767.8
