    Time      Ur        Uinf      Ct_adm    a        Yaw(deg)  Thrust     Power  
    0.000     6.767     6.767     0.507     0.149     0.000  180752.2  1223064.3
    0.500     6.793     7.982     0.507     0.149     0.000  182180.3  1237547.3
    1.000     6.817     8.011     0.515     0.152     0.000  187437.0  1277848.4
    1.500     6.837     8.059     0.515     0.152     0.000  188531.4  1289041.5
    2.000     6.855     8.080     0.522     0.154     0.000  193475.4  1326230.1
    2.500     6.868     8.121     0.522     0.154     0.000  194211.6  1333807.9
    3.000     6.879     8.135     0.529     0.157     0.000  198863.8  1368045.8
    3.500     6.887     8.170     0.529     0.157     0.000  199324.3  1372822.9
    4.000     6.895     8.179     0.537     0.160     0.000  203781.8  1405090.7
    4.500     6.900     8.211     0.537     0.160     0.000  204082.0  1408248.0
    5.000     6.906     8.218     0.537     0.160     0.000  204630.3  1413220.5
    5.500     6.912     8.227     0.537     0.160     0.000  204979.3  1416914.0
    6.000     6.919     8.235     0.536     0.159     0.000  204623.1  1415835.5
    6.500     6.927     8.239     0.536     0.159     0.000  205038.2  1420236.1
    7.000     6.934     8.248     0.535     0.159     0.000  205185.7  1422760.7
    7.500     6.941     8.255     0.535     0.159     0.000  205572.0  1426866.6
    8.000     6.947     8.262     0.535     0.159     0.000  205667.1  1428761.1
    8.500     6.952     8.266     0.535     0.159     0.000  205938.6  1431648.8
    9.000     6.955     8.270     0.535     0.159     0.000  205982.2  1432638.4
    9.500     6.957     8.271     0.535     0.159     0.000  206083.8  1433709.0
   10.000     6.957     8.271     0.535     0.159     0.000  206164.6  1434290.9
   10.500     6.956     8.270     0.535     0.159     0.000  206088.7  1433452.8
   11.000     6.953     8.267     0.535     0.159     0.000  206328.8  1434533.5
   11.500     6.948     8.264     0.535     0.159     0.000  206108.2  1432138.8
   12.000     6.944     8.258     0.537     0.160     0.000  206583.0  1434419.0
   12.500     6.938     8.256     0.537     0.160     0.000  206273.1  1431068.7
   13.000     6.932     8.249     0.539     0.160     0.000  206965.0  1434650.3
   13.500     6.926     8.248     0.539     0.160     0.000  206624.9  1430992.8
   14.000     6.920     8.241     0.541     0.161     0.000  207425.7  1435336.2
   14.500     6.914     8.241     0.541     0.161     0.000  207107.1  1431936.2
   15.000     6.909     8.236     0.542     0.162     0.000  207854.4  1436089.2
   15.500     6.905     8.237     0.542     0.162     0.000  207597.8  1433384.5
   16.000     6.901     8.233     0.544     0.162     0.000  208124.7  1436318.1
   16.500     6.899     8.234     0.544     0.162     0.000  207961.5  1434633.9
   17.000     6.897     8.232     0.544     0.162     0.000  208135.5  1435519.0
   17.500     6.897     8.234     0.544     0.162     0.000  208089.9  1435092.5
   18.000     6.897     8.234     0.544     0.162     0.000  207837.8  1433472.2
   18.500     6.899     8.235     0.544     0.162     0.000  207925.7  1434446.2
   19.000     6.902     8.238     0.542     0.162     0.000  207240.0  1430275.7
   19.500     6.906     8.237     0.542     0.162     0.000  207464.6  1432659.8
   20.000     6.910     8.243     0.540     0.161     0.000  206385.8  1426173.8
   20.500     6.916     8.241     0.540     0.161     0.000  206734.4  1429819.9
   21.000     6.922     8.249     0.537     0.160     0.000  205325.1  1421362.2
   21.500     6.930     8.246     0.537     0.160     0.000  205771.8  1425997.5
   22.000     6.937     8.255     0.533     0.158     0.000  204104.8  1415962.5
   22.500     6.946     8.252     0.533     0.158     0.000  204619.5  1421280.6
   23.000     6.954     8.262     0.529     0.157     0.000  202779.7  1410166.9
   23.500     6.963     8.258     0.529     0.157     0.000  203338.7  1415938.6
   24.000     6.972     8.268     0.524     0.155     0.000  201426.3  1404400.3
   24.500     6.982     8.264     0.524     0.155     0.000  202020.0  1410543.5
   25.000     6.992     8.276     0.520     0.154     0.000  200144.3  1399354.5
   25.500     7.002     8.273     0.520     0.154     0.000  200776.3  1405925.4
   26.000     7.013     8.285     0.516     0.152     0.000  199037.9  1395834.6
   26.500     7.025     8.284     0.516     0.152     0.000  199716.5  1402934.7
   27.000     7.036     8.298     0.512     0.151     0.000  198185.8  1394472.2
   27.500     7.049     8.299     0.512     0.151     0.000  198911.0  1402108.3
   28.000     7.061     8.314     0.508     0.149     0.000  197617.4  1395460.7
   28.500     7.075     8.317     0.508     0.149     0.000  198370.2  1403433.6
   29.000     7.088     8.332     0.505     0.148     0.000  197310.7  1398481.3
   29.500     7.101     8.336     0.505     0.148     0.000  198052.2  1406367.8
   30.000     7.113     8.351     0.502     0.147     0.000  197209.4  1402824.1
   30.500     7.126     8.356     0.502     0.147     0.000  197889.2  1410073.3
   31.000     7.136     8.368     0.500     0.146     0.000  197246.4  1407641.3
   31.500     7.147     8.373     0.500     0.146     0.000  197817.8  1413739.3
   32.000     7.155     8.383     0.498     0.146     0.000  197361.4  1412189.0
   32.500     7.163     8.386     0.498     0.146     0.000  197795.3  1416812.8
   33.000     7.169     8.393     0.497     0.145     0.000  197508.3  1415971.1
   33.500     7.174     8.395     0.497     0.145     0.000  197799.0  1419061.1
   34.000     7.178     8.399     0.496     0.145     0.000  197647.6  1418718.8
   34.500     7.181     8.401     0.496     0.145     0.000  197811.4  1420455.5
   35.000     7.183     8.403     0.496     0.145     0.000  197741.2  1420317.6
   35.500     7.184     8.403     0.496     0.145     0.000  197808.4  1421029.9
   36.000     7.184     8.404     0.496     0.145     0.000  197760.0  1420786.6
   36.500     7.184     8.403     0.496     0.145     0.000  197764.5  1420837.4
   37.000     7.184     8.403     0.496     0.145     0.000  197688.5  1420242.0
   37.500     7.184     8.402     0.496     0.145     0.000  197659.8  1419946.6
   38.000     7.183     8.401     0.496     0.145     0.000  197529.1  1418890.4
   38.500     7.183     8.400     0.496     0.145     0.000  197491.1  1418500.5
   39.000     7.182     8.399     0.495     0.145     0.000  197304.6  1417050.5
   39.500     7.182     8.398     0.495     0.145     0.000  197280.1  1416807.9
   40.000     7.182     8.398     0.495     0.145     0.000  197056.5  1415183.1
   40.500     7.182     8.397     0.495     0.145     0.000  197074.4  1415395.1
   41.000     7.183     8.398     0.495     0.145     0.000  196838.8  1413892.3
   41.500     7.185     8.399     0.495     0.145     0.000  196936.7  1414959.4
   42.000     7.188     8.402     0.494     0.144     0.000  196709.4  1413862.7
   42.500     7.192     8.404     0.494     0.144     0.000  196926.9  1416211.2
   43.000     7.197     8.410     0.493     0.144     0.000  196716.7  1415708.7
   43.500     7.203     8.415     0.493     0.144     0.000  197080.4  1419630.4
   44.000     7.211     8.424     0.492     0.144     0.000  196888.1  1419774.6
   44.500     7.220     8.431     0.492     0.144     0.000  197393.2  1425227.2
   45.000     7.230     8.443     0.491     0.143     0.000  197216.9  1425918.4
   45.500     7.241     8.451     0.491     0.143     0.000  197815.2  1432391.9
   46.000     7.252     8.463     0.489     0.143     0.000  197649.1  1433342.9
   46.500     7.263     8.472     0.489     0.143     0.000  198251.3  1439877.3
   47.000     7.273     8.483     0.488     0.142     0.000  198078.3  1440598.2
   47.500     7.282     8.489     0.488     0.142     0.000  198574.8  1445994.9
   48.000     7.289     8.498     0.487     0.142     0.000  198363.3  1445863.3
   48.500     7.294     8.500     0.487     0.142     0.000  198655.1  1449028.5
   49.000     7.297     8.503     0.486     0.142     0.000  198369.2  1447483.7
   49.500     7.297     8.501     0.486     0.142     0.000  198397.4  1447764.7
   50.000     7.295     8.498     0.486     0.141     0.000  198014.2  1444527.6
   50.500     7.291     8.491     0.486     0.141     0.000  197775.3  1441891.2
   51.000     7.284     8.484     0.485     0.141     0.000  197290.2  1437026.3
   51.500     7.275     8.473     0.485     0.141     0.000  196832.0  1432010.5
   52.000     7.265     8.461     0.485     0.141     0.000  196240.3  1425741.7
   52.500     7.254     8.448     0.485     0.141     0.000  195641.9  1419233.3
   53.000     7.243     8.434     0.485     0.141     0.000  194916.8  1411690.8
   53.500     7.231     8.420     0.485     0.141     0.000  194265.9  1404657.8
   54.000     7.219     8.406     0.485     0.141     0.000  193363.3  1395832.4
   54.500     7.207     8.391     0.485     0.141     0.000  192737.3  1389115.0
   55.000     7.196     8.379     0.484     0.141     0.000  191634.2  1379082.4
   55.500     7.187     8.364     0.484     0.141     0.000  191090.4  1373285.6
   56.000     7.178     8.353     0.482     0.140     0.000  189823.0  1362458.7
   56.500     7.170     8.340     0.482     0.140     0.000  189396.6  1357937.5
   57.000     7.163     8.332     0.481     0.140     0.000  188062.2  1347088.2
   57.500     7.158     8.320     0.481     0.140     0.000  187769.4  1343990.5
   58.000     7.153     8.315     0.479     0.139     0.000  186492.8  1334023.2
   58.500     7.150     8.305     0.479     0.139     0.000  186335.0  1332343.8
   59.000     7.148     8.302     0.477     0.138     0.000  185222.8  1323993.2
   59.500     7.147     8.295     0.477     0.138     0.000  185189.2  1323611.2
   60.000     7.147     8.295     0.475     0.138     0.000  184301.2  1317250.2
   60.500     7.148     8.291     0.475     0.138     0.000  184368.5  1317930.1
   61.000     7.150     8.293     0.474     0.137     0.000  183711.2  1313518.5
   61.500     7.152     8.291     0.474     0.137     0.000  183843.5  1314900.2
   62.000     7.155     8.294     0.473     0.137     0.000  183386.2  1312095.7
   62.500     7.158     8.293     0.473     0.137     0.000  183536.8  1313703.7
   63.000     7.160     8.296     0.472     0.137     0.000  183239.9  1312065.8
   63.500     7.163     8.297     0.472     0.137     0.000  183359.0  1313376.3
   64.000     7.165     8.299     0.471     0.136     0.000  183203.0  1312602.6
   64.500     7.166     8.299     0.471     0.136     0.000  183249.1  1313164.5
   65.000     7.166     8.299     0.471     0.136     0.000  183249.7  1313244.5
   65.500     7.166     8.299     0.471     0.136     0.000  183201.0  1312810.8
   66.000     7.165     8.297     0.472     0.137     0.000  183402.6  1314018.5
   66.500     7.162     8.297     0.472     0.137     0.000  183263.5  1312620.5
   67.000     7.160     8.293     0.473     0.137     0.000  183708.1  1315302.4
   67.500     7.156     8.293     0.473     0.137     0.000  183506.9  1313230.3
   68.000     7.153     8.289     0.475     0.138     0.000  184193.1  1317491.4
   68.500     7.149     8.290     0.475     0.138     0.000  183973.9  1315204.5
   69.000     7.145     8.286     0.477     0.138     0.000  184835.9  1320723.3
   69.500     7.142     8.288     0.477     0.138     0.000  184647.5  1318733.4
   70.000     7.139     8.285     0.479     0.139     0.000  185568.2  1324820.7
   70.500     7.137     8.289     0.479     0.139     0.000  185454.4  1323587.0
   71.000     7.136     8.288     0.480     0.140     0.000  186306.7  1329459.3
   71.500     7.135     8.293     0.480     0.140     0.000  186297.9  1329306.3
   72.000     7.136     8.294     0.482     0.140     0.000  186991.8  1334397.0
   72.500     7.138     8.300     0.482     0.140     0.000  187098.4  1335446.5
   73.000     7.140     8.303     0.482     0.140     0.000  187606.5  1339570.4
   73.500     7.144     8.309     0.482     0.140     0.000  187815.5  1341703.8
   74.000     7.148     8.314     0.482     0.140     0.000  188171.6  1345038.5
   74.500     7.153     8.320     0.482     0.140     0.000  188448.0  1347902.7
   75.000     7.158     8.326     0.482     0.140     0.000  188722.8  1350820.6
   75.500     7.163     8.332     0.482     0.140     0.000  189016.5  1353892.4
   76.000     7.168     8.337     0.482     0.140     0.000  189291.1  1356797.1
   76.500     7.172     8.343     0.482     0.140     0.000  189547.6  1359496.8
   77.000     7.176     8.347     0.483     0.140     0.000  189895.2  1362734.0
   77.500     7.179     8.352     0.483     0.140     0.000  190066.8  1364545.9
   78.000     7.181     8.354     0.483     0.141     0.000  190547.4  1368401.5
   78.500     7.182     8.357     0.483     0.141     0.000  190599.3  1368945.0
   79.000     7.182     8.357     0.485     0.141     0.000  191263.3  1373679.6
   79.500     7.180     8.359     0.485     0.141     0.000  191173.2  1372709.1
   80.000     7.178     8.356     0.486     0.142     0.000  192066.2  1378582.9
   80.500     7.173     8.357     0.486     0.142     0.000  191820.3  1375944.1
   81.000     7.167     8.351     0.489     0.143     0.000  192978.2  1383161.4
   81.500     7.160     8.351     0.489     0.143     0.000  192567.6  1378755.0
   82.000     7.151     8.341     0.493     0.144     0.000  194009.8  1387412.8
   82.500     7.141     8.340     0.493     0.144     0.000  193430.4  1381200.6
   83.000     7.129     8.326     0.497     0.145     0.000  195151.0  1391237.9
   83.500     7.115     8.325     0.497     0.145     0.000  194406.7  1383275.3
   84.000     7.101     8.308     0.502     0.147     0.000  196361.9  1394397.2
   84.500     7.085     8.306     0.502     0.147     0.000  195467.4  1384867.0
   85.000     7.068     8.287     0.507     0.149     0.000  197567.2  1396498.3
   85.500     7.050     8.284     0.507     0.149     0.000  196550.5  1385724.9
   86.000     7.032     8.263     0.513     0.151     0.000  198677.9  1397149.9
   86.500     7.013     8.260     0.513     0.151     0.000  197579.7  1385586.2
   87.000     6.994     8.238     0.518     0.153     0.000  199621.9  1396166.7
   87.500     6.974     8.234     0.518     0.153     0.000  198492.6  1384350.0
   88.000     6.956     8.212     0.524     0.155     0.000  200360.0  1393641.2
   88.500     6.937     8.208     0.524     0.155     0.000  199253.4  1382129.9
   89.000     6.919     8.187     0.529     0.157     0.000  200890.2  1389930.9
   89.500     6.901     8.183     0.529     0.157     0.000  199856.2  1379232.9
   90.000     6.885     8.164     0.533     0.158     0.000  201254.4  1385654.0
   90.500     6.869     8.161     0.533     0.158     0.000  200333.0  1376162.9
   91.000     6.855     8.144     0.540     0.161     0.000  203500.6  1395095.8
   91.500     6.841     8.153     0.540     0.161     0.000  202641.0  1386275.8
   92.000     6.829     8.138     0.547     0.164     0.000  205849.9  1405660.1
   92.500     6.816     8.148     0.547     0.164     0.000  205073.9  1397725.8
   93.000     6.805     8.135     0.554     0.166     0.000  208349.6  1417817.0
   93.500     6.794     8.148     0.554     0.166     0.000  207679.5  1410986.5
   94.000     6.785     8.137     0.561     0.169     0.000  211049.2  1432055.5
   94.500     6.777     8.152     0.561     0.169     0.000  210507.9  1426557.6
   95.000     6.771     8.145     0.568     0.171     0.000  214000.1  1448889.9
   95.500     6.764     8.163     0.568     0.171     0.000  213609.9  1444944.0
   96.000     6.761     8.159     0.572     0.173     0.000  215902.6  1459683.4
   96.500     6.758     8.172     0.572     0.173     0.000  215730.5  1457961.0
   97.000     6.758     8.172     0.575     0.174     0.000  217545.6  1470195.8
   97.500     6.759     8.185     0.575     0.174     0.000  217604.0  1470817.8
   98.000     6.762     8.189     0.578     0.175     0.000  219082.9  1481507.5
   98.500     6.767     8.202     0.578     0.175     0.000  219347.8  1484234.2
   99.000     6.772     8.210     0.579     0.176     0.000  220719.2  1494805.3
   99.500     6.779     8.224     0.579     0.176     0.000  221129.1  1499020.7
  100.000     6.786     8.233     0.582     0.177     0.000  222977.0  1513206.9
  100.500     6.794     8.251     0.582     0.177     0.000  223431.5  1517899.7
  101.000     6.801     8.260     0.583     0.177     0.000  224553.2  1527202.4
  101.500     6.808     8.273     0.583     0.177     0.000  224999.7  1531835.5
  102.000     6.815     8.281     0.582     0.177     0.000  225128.3  1534251.1
  102.500     6.822     8.287     0.582     0.177     0.000  225538.9  1538526.5
  103.000     6.827     8.294     0.583     0.177     0.000  226253.4  1544736.6
  103.500     6.832     8.302     0.583     0.177     0.000  226563.7  1547980.5
  104.000     6.837     8.308     0.582     0.177     0.000  226150.1  1546107.2
  104.500     6.841     8.308     0.582     0.177     0.000  226396.3  1548670.4
  105.000     6.844     8.312     0.582     0.177     0.000  226839.8  1552433.1
  105.500     6.846     8.316     0.582     0.177     0.000  227004.7  1554132.5
  106.000     6.848     8.319     0.581     0.176     0.000  226257.2  1549496.3
  106.500     6.851     8.316     0.581     0.176     0.000  226426.5  1551208.1
  107.000     6.853     8.319     0.578     0.175     0.000  224981.0  1541837.9
  107.500     6.857     8.313     0.578     0.175     0.000  225222.0  1544260.1
  108.000     6.860     8.317     0.575     0.174     0.000  223856.5  1535704.8
  108.500     6.865     8.313     0.575     0.174     0.000  224196.4  1539130.3
  109.000     6.870     8.319     0.572     0.173     0.000  222454.7  1528335.3
  109.500     6.877     8.314     0.572     0.173     0.000  222922.6  1533080.7
  110.000     6.884     8.322     0.568     0.171     0.000  220991.5  1521389.8
  110.500     6.893     8.317     0.568     0.171     0.000  221584.4  1527444.5
  111.000     6.902     8.328     0.563     0.169     0.000  219411.0  1514436.2
  111.500     6.913     8.323     0.563     0.169     0.000  220100.4  1521524.4
  112.000     6.923     8.336     0.558     0.168     0.000  218041.4  1509521.4
  112.500     6.934     8.332     0.558     0.168     0.000  218764.1  1516995.0
  113.000     6.945     8.344     0.554     0.166     0.000  216686.8  1504845.3
  113.500     6.956     8.340     0.554     0.166     0.000  217377.1  1512021.3
  114.000     6.965     8.351     0.549     0.164     0.000  215137.1  1498503.5
  114.500     6.975     8.345     0.549     0.164     0.000  215746.6  1504867.3
  115.000     6.983     8.355     0.544     0.163     0.000  213689.2  1492265.4
  115.500     6.991     8.348     0.544     0.163     0.000  214187.1  1497484.2
  116.000     6.998     8.356     0.543     0.162     0.000  213887.9  1496795.7
  116.500     7.004     8.358     0.543     0.162     0.000  214229.9  1500396.0
  117.000     7.008     8.364     0.538     0.160     0.000  211581.3  1482810.8
  117.500     7.014     8.352     0.538     0.160     0.000  211913.5  1486319.0
  118.000     7.019     8.358     0.534     0.159     0.000  209677.4  1471695.2
  118.500     7.025     8.350     0.534     0.159     0.000  210054.8  1475687.2
  119.000     7.032     8.357     0.529     0.157     0.000  207782.1  1461056.6
  119.500     7.040     8.350     0.529     0.157     0.000  208269.2  1466211.5
  120.000     7.049     8.361     0.526     0.156     0.000  206983.4  1458959.6
  120.500     7.059     8.362     0.526     0.156     0.000  207586.9  1465350.4
  121.000     7.070     8.374     0.520     0.154     0.000  204745.2  1447506.3
  121.500     7.083     8.369     0.520     0.154     0.000  205524.4  1455769.1
  122.000     7.097     8.385     0.516     0.152     0.000  203998.6  1447754.6
  122.500     7.112     8.388     0.516     0.152     0.000  204879.4  1457124.7
  123.000     7.127     8.406     0.511     0.150     0.000  203013.4  1446919.2
  123.500     7.144     8.408     0.511     0.150     0.000  203953.2  1456961.8
  124.000     7.159     8.427     0.506     0.149     0.000  202016.1  1446302.7
  124.500     7.176     8.429     0.506     0.149     0.000  202950.6  1456348.7
  125.000     7.191     8.447     0.502     0.147     0.000  201386.7  1448211.8
  125.500     7.207     8.450     0.502     0.147     0.000  202241.0  1457462.3
  126.000     7.220     8.466     0.497     0.146     0.000  200482.3  1447539.8
  126.500     7.234     8.466     0.497     0.146     0.000  201216.8  1455556.9
  127.000     7.245     8.480     0.493     0.144     0.000  199499.5  1445452.4
  127.500     7.257     8.478     0.493     0.144     0.000  200096.3  1452013.9
  128.000     7.266     8.489     0.490     0.143     0.000  198530.0  1442508.3
  128.500     7.275     8.487     0.490     0.143     0.000  199001.9  1447720.7
  129.000     7.282     8.496     0.486     0.142     0.000  197296.3  1436790.0
  129.500     7.290     8.492     0.486     0.142     0.000  197693.8  1441177.4
  130.000     7.297     8.500     0.483     0.140     0.000  196214.9  1431685.2
  130.500     7.303     8.497     0.483     0.140     0.000  196587.7  1435774.9
  131.000     7.310     8.504     0.480     0.139     0.000  195310.0  1427704.9
  131.500     7.317     8.503     0.480     0.139     0.000  195698.6  1431938.9
  132.000     7.324     8.511     0.478     0.139     0.000  194919.0  1427576.9
  132.500     7.331     8.512     0.478     0.139     0.000  195332.3  1432057.0
  133.000     7.339     8.521     0.476     0.138     0.000  194789.1  1429492.7
  133.500     7.346     8.524     0.476     0.138     0.000  195223.0  1434181.6
  134.000     7.354     8.532     0.475     0.138     0.000  194832.4  1432774.2
  134.500     7.362     8.537     0.475     0.138     0.000  195273.7  1437540.0
  135.000     7.369     8.545     0.474     0.137     0.000  195090.2  1437659.0
  135.500     7.377     8.551     0.474     0.137     0.000  195524.4  1442357.0
  136.000     7.384     8.559     0.473     0.137     0.000  195531.8  1443863.2
  136.500     7.392     8.565     0.473     0.137     0.000  195952.6  1448436.5
  137.000     7.399     8.574     0.472     0.137     0.000  195803.5  1448769.2
  137.500     7.407     8.579     0.472     0.137     0.000  196220.7  1453338.2
  138.000     7.414     8.588     0.471     0.136     0.000  196207.9  1454705.0
  138.500     7.422     8.594     0.471     0.136     0.000  196618.1  1459239.8
  139.000     7.429     8.603     0.471     0.136     0.000  196778.8  1461894.9
  139.500     7.436     8.610     0.471     0.136     0.000  197164.0  1466199.6
  140.000     7.443     8.618     0.471     0.136     0.000  197411.4  1469405.3
  140.500     7.450     8.625     0.471     0.136     0.000  197740.8  1473127.4
  141.000     7.455     8.631     0.471     0.136     0.000  198012.3  1476273.6
  141.500     7.460     8.637     0.471     0.136     0.000  198248.7  1478979.7
  142.000     7.464     8.641     0.471     0.136     0.000  198653.3  1482728.4
  142.500     7.466     8.645     0.471     0.136     0.000  198762.2  1484007.9
  143.000     7.467     8.646     0.472     0.137     0.000  199212.1  1487588.4
  143.500     7.467     8.648     0.472     0.137     0.000  199180.0  1487275.8
  144.000     7.465     8.646     0.473     0.137     0.000  199587.1  1490011.2
  144.500     7.463     8.646     0.473     0.137     0.000  199426.0  1488237.0
  145.000     7.459     8.642     0.474     0.137     0.000  199837.3  1490557.8
  145.500     7.454     8.640     0.474     0.137     0.000  199575.3  1487640.2
  146.000     7.449     8.634     0.474     0.137     0.000  199716.3  1487626.9
  146.500     7.443     8.629     0.474     0.137     0.000  199397.9  1484073.2
  147.000     7.437     8.622     0.475     0.138     0.000  199393.7  1482827.2
  147.500     7.430     8.617     0.475     0.138     0.000  199055.3  1479051.7
  148.000     7.424     8.610     0.475     0.138     0.000  198748.3  1475528.8
  148.500     7.418     8.603     0.475     0.138     0.000  198424.0  1471910.1
  149.000     7.412     8.596     0.475     0.138     0.000  197991.8  1467543.7
  149.500     7.407     8.589     0.475     0.138     0.000  197703.0  1464320.6
  150.000     7.402     8.583     0.474     0.137     0.000  197107.4  1458906.7
  150.500     7.397     8.576     0.474     0.137     0.000  196878.1  1456345.6
  151.000     7.393     8.571     0.474     0.137     0.000  196352.8  1451718.3
  151.500     7.391     8.566     0.474     0.137     0.000  196205.2  1450070.8
  152.000     7.389     8.564     0.473     0.137     0.000  195700.1  1445950.1
  152.500     7.388     8.561     0.473     0.137     0.000  195656.2  1445471.3
  153.000     7.388     8.561     0.472     0.137     0.000  195335.1  1443136.8
  153.500     7.389     8.560     0.472     0.137     0.000  195398.2  1443868.3
  154.000     7.392     8.563     0.472     0.137     0.000  195110.0  1442173.7
  154.500     7.395     8.564     0.472     0.137     0.000  195263.4  1443926.7
  155.000     7.398     8.568     0.472     0.137     0.000  195379.9  1445498.0
  155.500     7.402     8.573     0.472     0.137     0.000  195568.3  1447644.3
  156.000     7.406     8.577     0.471     0.136     0.000  195679.2  1449192.3
  156.500     7.409     8.580     0.471     0.136     0.000  195845.7  1451078.1
  157.000     7.412     8.583     0.471     0.136     0.000  196001.7  1452749.3
  157.500     7.414     8.585     0.471     0.136     0.000  196089.5  1453730.6
  158.000     7.414     8.586     0.472     0.137     0.000  196305.1  1455445.5
  158.500     7.413     8.586     0.472     0.137     0.000  196273.5  1455071.4
  159.000     7.412     8.584     0.472     0.137     0.000  196593.9  1457065.3
  159.500     7.408     8.583     0.472     0.137     0.000  196422.0  1455121.3
  160.000     7.404     8.577     0.474     0.137     0.000  196959.2  1458198.2
  160.500     7.397     8.575     0.474     0.137     0.000  196640.9  1454633.7
  161.000     7.390     8.567     0.476     0.138     0.000  197387.0  1458745.7
  161.500     7.382     8.563     0.476     0.138     0.000  196929.3  1453652.7
  162.000     7.372     8.552     0.478     0.139     0.000  197934.5  1459208.9
  162.500     7.361     8.549     0.478     0.139     0.000  197353.5  1452773.6
  163.000     7.350     8.536     0.481     0.140     0.000  198010.9  1455377.8
  163.500     7.338     8.529     0.481     0.140     0.000  197356.1  1448148.9
  164.000     7.326     8.515     0.484     0.141     0.000  198398.8  1453377.2
  164.500     7.313     8.510     0.484     0.141     0.000  197702.5  1445711.2
  165.000     7.300     8.495     0.487     0.142     0.000  198950.0  1452354.2
  165.500     7.287     8.492     0.487     0.142     0.000  198256.5  1444736.7
  166.000     7.275     8.478     0.491     0.143     0.000  199695.2  1452839.2
  166.500     7.263     8.477     0.491     0.143     0.000  199043.5  1445696.2
  167.000     7.252     8.464     0.495     0.145     0.000  200841.4  1456583.1
  167.500     7.241     8.466     0.495     0.145     0.000  200245.2  1450064.8
  168.000     7.232     8.454     0.499     0.146     0.000  202068.6  1461320.3
  168.500     7.222     8.457     0.499     0.146     0.000  201528.3  1455431.1
  169.000     7.213     8.447     0.503     0.147     0.000  203317.9  1466591.6
  169.500     7.204     8.450     0.503     0.147     0.000  202812.1  1461106.6
  170.000     7.196     8.441     0.507     0.149     0.000  204477.8  1471432.4
  170.500     7.187     8.444     0.507     0.149     0.000  203978.1  1466045.0
  171.000     7.179     8.434     0.511     0.150     0.000  205772.6  1477257.6
  171.500     7.170     8.437     0.511     0.150     0.000  205245.1  1471603.7
  172.000     7.161     8.427     0.514     0.152     0.000  206853.5  1481344.3
  172.500     7.152     8.429     0.514     0.152     0.000  206290.4  1475336.2
  173.000     7.143     8.418     0.518     0.153     0.000  207808.1  1484281.3
  173.500     7.132     8.419     0.518     0.153     0.000  207210.5  1477927.5
  174.000     7.123     8.407     0.521     0.154     0.000  208690.9  1486471.6
  174.500     7.112     8.408     0.521     0.154     0.000  208064.7  1479830.5
  175.000     7.102     8.396     0.525     0.155     0.000  209678.4  1489207.5
  175.500     7.091     8.397     0.525     0.155     0.000  209024.1  1482284.1
  176.000     7.081     8.385     0.529     0.157     0.000  210666.5  1491749.7
  176.500     7.070     8.385     0.529     0.157     0.000  209990.1  1484612.2
  177.000     7.059     8.373     0.533     0.158     0.000  211687.7  1494382.0
  177.500     7.048     8.374     0.533     0.158     0.000  211000.0  1487147.4
  178.000     7.038     8.362     0.537     0.160     0.000  212748.6  1497245.6
  178.500     7.027     8.364     0.537     0.160     0.000  212071.3  1490144.8
  179.000     7.017     8.352     0.541     0.161     0.000  213569.2  1498549.8
  179.500     7.007     8.353     0.541     0.161     0.000  212947.1  1492051.6
  180.000     6.998     8.343     0.545     0.163     0.000  214598.3  1501761.9
  180.500     6.989     8.347     0.545     0.163     0.000  214062.0  1496178.0
  181.000     6.982     8.338     0.550     0.164     0.000  216573.6  1512216.9
  181.500     6.975     8.348     0.550     0.164     0.000  216115.8  1507458.7
  182.000     6.970     8.342     0.553     0.166     0.000  217929.7  1518886.4
  182.500     6.964     8.349     0.553     0.166     0.000  217583.4  1515287.2
  183.000     6.960     8.344     0.557     0.167     0.000  219727.9  1529321.6
  183.500     6.956     8.354     0.557     0.167     0.000  219445.3  1526375.3
  184.000     6.952     8.349     0.562     0.169     0.000  221668.8  1541038.0
  184.500     6.947     8.360     0.562     0.169     0.000  221375.5  1537975.0
  185.000     6.943     8.354     0.566     0.171     0.000  223862.1  1554250.8
  185.500     6.937     8.364     0.566     0.171     0.000  223451.2  1549975.1
  186.000     6.930     8.356     0.572     0.173     0.000  226325.3  1568351.2
  186.500     6.920     8.365     0.572     0.173     0.000  225682.0  1561691.2
  187.000     6.909     8.352     0.577     0.175     0.000  228182.9  1576535.1
  187.500     6.895     8.356     0.577     0.175     0.000  227249.0  1566909.6
  188.000     6.880     8.338     0.583     0.177     0.000  230108.0  1583124.0
  188.500     6.861     8.340     0.583     0.177     0.000  228837.9  1570087.0
  189.000     6.841     8.316     0.590     0.180     0.000  231463.5  1583519.7
  189.500     6.818     8.313     0.590     0.180     0.000  229896.8  1567516.0
  190.000     6.795     8.285     0.596     0.182     0.000  232216.6  1577902.7
  190.500     6.769     8.279     0.596     0.182     0.000  230447.6  1559940.0
  191.000     6.744     8.248     0.603     0.185     0.000  232564.1  1568373.6
  191.500     6.717     8.240     0.603     0.185     0.000  230709.3  1549671.5
  192.000     6.691     8.209     0.609     0.187     0.000  232736.7  1557337.7
  192.500     6.665     8.201     0.609     0.187     0.000  230905.2  1539011.6
  193.000     6.641     8.171     0.615     0.190     0.000  232941.5  1546903.1
  193.500     6.616     8.166     0.615     0.190     0.000  231212.4  1529738.0
  194.000     6.594     8.138     0.621     0.192     0.000  233321.0  1538477.9
  194.500     6.572     8.136     0.621     0.192     0.000  231732.8  1522837.9
  195.000     6.552     8.111     0.627     0.195     0.000  233937.5  1532645.6
  195.500     6.532     8.110     0.627     0.195     0.000  232490.0  1518509.3
  196.000     6.514     8.088     0.633     0.197     0.000  234779.6  1529263.8
  196.500     6.495     8.090     0.633     0.197     0.000  233444.0  1516334.5
  197.000     6.479     8.070     0.639     0.200     0.000  235785.8  1527705.1
  197.500     6.462     8.073     0.639     0.200     0.000  234521.5  1515572.9
  198.000     6.447     8.054     0.644     0.202     0.000  236491.1  1524693.0
  198.500     6.431     8.056     0.644     0.202     0.000  235283.4  1513197.4
  199.000     6.417     8.038     0.646     0.202     0.000  235381.1  1510432.5
  199.500     6.403     8.029     0.646     0.202     0.000  234306.0  1500276.2
  200.000     6.390     8.013     0.647     0.203     0.000  234004.3  1495374.5
  200.500     6.378     8.003     0.647     0.203     0.000  233077.6  1486671.5
  201.000     6.368     7.989     0.647     0.203     0.000  232220.3  1478709.9
  201.500     6.358     7.977     0.647     0.203     0.000  231482.2  1471809.1
  202.000     6.350     7.967     0.646     0.203     0.000  230279.2  1462255.5
  202.500     6.343     7.954     0.646     0.203     0.000  229764.5  1457456.8
  203.000     6.338     7.948     0.643     0.201     0.000  227705.4  1443164.3
  203.500     6.335     7.932     0.643     0.201     0.000  227461.9  1440900.0
  204.000     6.333     7.929     0.640     0.200     0.000  225536.6  1428240.3
  204.500     6.333     7.917     0.640     0.200     0.000  225539.1  1428265.3
  205.000     6.334     7.918     0.637     0.199     0.000  223725.5  1416970.0
  205.500     6.336     7.908     0.637     0.199     0.000  223922.2  1418803.7
  206.000     6.339     7.912     0.634     0.197     0.000  222199.3  1408544.8
  206.500     6.343     7.904     0.634     0.197     0.000  222513.5  1411480.0
  207.000     6.347     7.908     0.631     0.196     0.000  220940.7  1402384.2
  207.500     6.352     7.901     0.631     0.196     0.000  221277.0  1405536.9
  208.000     6.356     7.906     0.627     0.195     0.000  219577.5  1395563.2
  208.500     6.360     7.897     0.627     0.195     0.000  219852.4  1398154.1
  209.000     6.362     7.900     0.624     0.193     0.000  218040.6  1387166.8
  209.500     6.364     7.889     0.624     0.193     0.000  218188.8  1388574.1
  210.000     6.365     7.889     0.621     0.192     0.000  216916.3  1380568.2
  210.500     6.364     7.879     0.621     0.192     0.000  216880.8  1380237.5
  211.000     6.362     7.877     0.616     0.190     0.000  213557.5  1358625.0
  211.500     6.360     7.852     0.616     0.190     0.000  213435.4  1357471.1
  212.000     6.357     7.848     0.612     0.189     0.000  211250.5  1342890.9
  212.500     6.354     7.831     0.612     0.189     0.000  211033.9  1340830.8
  213.000     6.349     7.825     0.608     0.187     0.000  208377.3  1323079.0
  213.500     6.346     7.805     0.608     0.187     0.000  208158.0  1320993.2
  214.000     6.342     7.800     0.603     0.185     0.000  205415.9  1302841.5
  214.500     6.340     7.780     0.603     0.185     0.000  205276.7  1301528.5
  215.000     6.339     7.778     0.598     0.183     0.000  202315.6  1282383.2
  215.500     6.339     7.758     0.598     0.183     0.000  202331.7  1282569.8
  216.000     6.340     7.760     0.592     0.181     0.000  199211.2  1262994.5
  216.500     6.344     7.742     0.592     0.181     0.000  199423.8  1265077.3
  217.000     6.348     7.747     0.586     0.178     0.000  196299.5  1246104.7
  217.500     6.355     7.732     0.586     0.178     0.000  196703.0  1250029.4
  218.000     6.362     7.741     0.579     0.176     0.000  193713.7  1232435.6
  218.500     6.372     7.728     0.579     0.176     0.000  194261.8  1237755.6
  219.000     6.381     7.740     0.572     0.173     0.000  191389.7  1221218.8
  219.500     6.392     7.729     0.572     0.173     0.000  192018.2  1227309.9
  220.000     6.402     7.741     0.566     0.171     0.000  189526.5  1213291.4
  220.500     6.413     7.733     0.566     0.171     0.000  190165.6  1219476.8
  221.000     6.423     7.745     0.561     0.169     0.000  187990.0  1207382.4
  221.500     6.433     7.738     0.561     0.169     0.000  188595.5  1213230.9
  222.000     6.442     7.749     0.556     0.167     0.000  186839.1  1203646.1
  222.500     6.452     7.745     0.556     0.167     0.000  187392.6  1208983.7
  223.000     6.460     7.755     0.553     0.166     0.000  185948.3  1201227.1
  223.500     6.469     7.752     0.553     0.166     0.000  186459.1  1206147.3
  224.000     6.477     7.761     0.549     0.164     0.000  185073.1  1198645.3
  224.500     6.485     7.759     0.549     0.164     0.000  185569.3  1203424.3
  225.000     6.493     7.768     0.546     0.163     0.000  184422.8  1197448.4
  225.500     6.501     7.767     0.546     0.163     0.000  184924.0  1202275.5
  226.000     6.510     7.777     0.542     0.162     0.000  183610.3  1195231.6
  226.500     6.519     7.775     0.542     0.162     0.000  184137.4  1200309.6
  227.000     6.527     7.786     0.538     0.160     0.000  182705.1  1192543.8
  227.500     6.537     7.784     0.538     0.160     0.000  183258.4  1197876.7
  228.000     6.545     7.794     0.534     0.159     0.000  181650.7  1188981.9
  228.500     6.555     7.791     0.534     0.159     0.000  182214.4  1194417.8
  229.000     6.564     7.802     0.528     0.156     0.000  179707.1  1179567.7
  229.500     6.574     7.793     0.528     0.156     0.000  180278.4  1185086.5
  230.000     6.582     7.803     0.521     0.154     0.000  177366.4  1167501.1
  230.500     6.592     7.791     0.521     0.154     0.000  177927.6  1172937.7
  231.000     6.601     7.802     0.513     0.151     0.000  174747.1  1153471.2
  231.500     6.610     7.788     0.513     0.151     0.000  175288.5  1158737.1
  232.000     6.619     7.798     0.506     0.149     0.000  172063.6  1138863.8
  232.500     6.628     7.785     0.506     0.149     0.000  172583.8  1143946.3
  233.000     6.637     7.794     0.498     0.146     0.000  169320.7  1123721.5
  233.500     6.646     7.780     0.498     0.146     0.000  169826.6  1128687.5
  234.000     6.654     7.790     0.490     0.143     0.000  166531.6  1108173.2
  234.500     6.664     7.776     0.490     0.143     0.000  167026.9  1113055.6
  235.000     6.672     7.786     0.482     0.140     0.000  163698.6  1092231.5
  235.500     6.682     7.772     0.482     0.140     0.000  164174.3  1096939.6
  236.000     6.689     7.781     0.474     0.138     0.000  160797.2  1075647.4
  236.500     6.698     7.766     0.474     0.138     0.000  161231.5  1079957.6
  237.000     6.705     7.774     0.466     0.135     0.000  157780.9  1057945.6
  237.500     6.713     7.758     0.466     0.135     0.000  158145.9  1061575.5
  238.000     6.718     7.764     0.458     0.132     0.000  154598.5  1038604.4
  238.500     6.724     7.745     0.458     0.132     0.000  154872.4  1041329.6
  239.000     6.727     7.749     0.450     0.129     0.000  151217.6  1017285.5
  239.500     6.731     7.728     0.450     0.129     0.000  151394.3  1019037.5
  240.000     6.733     7.730     0.441     0.126     0.000  147639.8   993994.5
  240.500     6.734     7.707     0.441     0.126     0.000  147731.8   994895.1
  241.000     6.734     7.707     0.432     0.123     0.000  143902.6   969102.4
  241.500     6.735     7.683     0.432     0.123     0.000  143937.0   969425.0
  242.000     6.734     7.681     0.424     0.120     0.000  140067.7   943233.4
  242.500     6.734     7.656     0.424     0.120     0.000  140078.6   943322.9
  243.000     6.733     7.655     0.416     0.118     0.000  136503.8   919105.8
  243.500     6.733     7.632     0.416     0.118     0.000  136516.9   919224.1
  244.000     6.733     7.631     0.408     0.115     0.000  133224.5   896982.1
  244.500     6.734     7.611     0.408     0.115     0.000  133263.2   897368.3
  245.000     6.734     7.612     0.401     0.113     0.000  130340.5   877758.8
  245.500     6.737     7.595     0.401     0.113     0.000  130423.6   878604.7
  246.000     6.739     7.597     0.394     0.111     0.000  127634.4   860093.1
  246.500     6.743     7.583     0.394     0.111     0.000  127785.8   861644.9
  247.000     6.747     7.588     0.387     0.109     0.000  125176.4   844617.8
  247.500     6.754     7.578     0.387     0.109     0.000  125419.7   847120.9
  248.000     6.762     7.586     0.381     0.107     0.000  123132.8   832617.6
  248.500     6.772     7.581     0.381     0.107     0.000  123488.6   836290.9
  249.000     6.784     7.594     0.376     0.105     0.000  121611.4   824967.6
  249.500     6.798     7.595     0.376     0.105     0.000  122094.0   829971.3
  250.000     6.813     7.612     0.371     0.103     0.000  120515.4   821113.3
  250.500     6.832     7.619     0.371     0.103     0.000  121126.2   827477.9
  251.000     6.851     7.640     0.366     0.102     0.000  119999.8   822110.0
  251.500     6.872     7.653     0.366     0.102     0.000  120717.2   829628.0
  252.000     6.895     7.678     0.360     0.100     0.000  119042.2   820777.3
  252.500     6.919     7.689     0.360     0.100     0.000  119845.1   829236.7
  253.000     6.944     7.716     0.357     0.099     0.000  119245.7   828019.1
  253.500     6.969     7.736     0.357     0.099     0.000  120080.4   836862.5
  254.000     6.994     7.763     0.354     0.098     0.000  119516.4   835926.1
  254.500     7.020     7.783     0.354     0.098     0.000  120354.5   844851.5
  255.000     7.045     7.810     0.351     0.097     0.000  119858.0   844341.9
  255.500     7.070     7.830     0.351     0.097     0.000  120683.4   853171.5
  256.000     7.094     7.856     0.348     0.096     0.000  120178.6   852512.0
  256.500     7.118     7.875     0.348     0.096     0.000  120984.8   861163.5
  257.000     7.141     7.901     0.345     0.095     0.000  120462.2   860256.2
  257.500     7.165     7.918     0.345     0.095     0.000  121243.9   868655.8
  258.000     7.187     7.943     0.341     0.094     0.000  120623.4   866889.1
  258.500     7.209     7.959     0.341     0.094     0.000  121372.0   874936.0
  259.000     7.229     7.981     0.339     0.093     0.000  121054.4   875159.6
  259.500     7.250     7.997     0.339     0.093     0.000  121751.1   882646.2
  260.000     7.268     8.018     0.337     0.093     0.000  121309.8   881721.1
  260.500     7.286     8.031     0.337     0.093     0.000  121940.8   888502.8
  261.000     7.303     8.049     0.334     0.092     0.000  121451.4   886938.4
  261.500     7.318     8.060     0.334     0.092     0.000  122003.8   892875.5
  262.000     7.332     8.075     0.332     0.091     0.000  121525.3   891073.2
  262.500     7.345     8.084     0.332     0.091     0.000  121989.7   896061.5
  263.000     7.357     8.096     0.331     0.091     0.000  121819.0   896189.7
  263.500     7.367     8.104     0.331     0.091     0.000  122186.9   900131.7
  264.000     7.375     8.113     0.330     0.091     0.000  122012.0   899886.2
  264.500     7.383     8.118     0.330     0.091     0.000  122285.5   902802.8
  265.000     7.389     8.125     0.329     0.091     0.000  122441.7   904679.5
  265.500     7.393     8.129     0.329     0.091     0.000  122617.8   906539.7
  266.000     7.396     8.133     0.329     0.091     0.000  122712.1   907632.8
  266.500     7.398     8.135     0.329     0.091     0.000  122794.4   908483.8
  267.000     7.399     8.136     0.328     0.090     0.000  122196.8   904153.0
  267.500     7.399     8.132     0.328     0.090     0.000  122202.4   904191.1
  268.000     7.398     8.131     0.327     0.090     0.000  121532.3   899094.2
  268.500     7.396     8.125     0.327     0.090     0.000  121469.5   898415.5
  269.000     7.394     8.122     0.325     0.089     0.000  120742.4   892714.1
  269.500     7.391     8.115     0.325     0.089     0.000  120630.3   891521.8
  270.000     7.387     8.111     0.324     0.089     0.000  119975.7   886258.3
  270.500     7.384     8.104     0.324     0.089     0.000  119846.6   884888.1
  271.000     7.380     8.100     0.323     0.089     0.000  119285.1   880335.4
  271.500     7.377     8.095     0.323     0.089     0.000  119186.4   879285.8
  272.000     7.376     8.093     0.322     0.088     0.000  118623.2   874907.7
  272.500     7.375     8.089     0.322     0.088     0.000  118611.6   874779.9
  273.000     7.376     8.091     0.321     0.088     0.000  118305.7   872662.5
  273.500     7.380     8.092     0.321     0.088     0.000  118421.7   873894.8
  274.000     7.385     8.097     0.321     0.088     0.000  118381.0   874195.6
  274.500     7.392     8.104     0.321     0.088     0.000  118635.5   876917.8
  275.000     7.400     8.114     0.320     0.088     0.000  118834.0   879430.2
  275.500     7.411     8.124     0.320     0.088     0.000  119198.6   883349.1
  276.000     7.422     8.136     0.321     0.088     0.000  119997.9   890612.6
  276.500     7.433     8.151     0.321     0.088     0.000  120403.4   894986.0
  277.000     7.444     8.163     0.322     0.088     0.000  121188.8   902185.1
  277.500     7.455     8.177     0.322     0.088     0.000  121562.5   906228.0
  278.000     7.464     8.187     0.323     0.089     0.000  122253.2   912518.2
  278.500     7.472     8.198     0.323     0.089     0.000  122533.5   915556.5
  279.000     7.478     8.205     0.324     0.089     0.000  123374.2   922590.9
  279.500     7.482     8.213     0.324     0.089     0.000  123522.5   924191.2
  280.000     7.484     8.215     0.325     0.089     0.000  124133.8   929044.1
  280.500     7.485     8.219     0.325     0.089     0.000  124152.0   929216.8
  281.000     7.483     8.217     0.326     0.090     0.000  124555.0   932089.2
  281.500     7.481     8.217     0.326     0.090     0.000  124471.4   931137.2
  282.000     7.477     8.213     0.327     0.090     0.000  124616.7   931782.4
  282.500     7.473     8.210     0.327     0.090     0.000  124474.0   930175.4
  283.000     7.468     8.205     0.326     0.089     0.000  123831.0   924789.3
  283.500     7.464     8.197     0.326     0.089     0.000  123682.1   923118.9
  284.000     7.459     8.192     0.324     0.089     0.000  122914.6   916842.4
  284.500     7.455     8.184     0.324     0.089     0.000  122784.7   915393.7
  285.000     7.452     8.180     0.323     0.089     0.000  121871.7   908136.0
  285.500     7.449     8.172     0.323     0.089     0.000  121770.7   907016.5
  286.000     7.446     8.169     0.319     0.088     0.000  120183.5   894847.0
  286.500     7.444     8.158     0.319     0.088     0.000  120117.0   894116.9
  287.000     7.442     8.155     0.316     0.087     0.000  118620.6   882725.2
  287.500     7.440     8.145     0.316     0.087     0.000  118567.2   882138.9
  288.000     7.438     8.143     0.313     0.086     0.000  117058.4   870661.8
  288.500     7.436     8.132     0.313     0.086     0.000  116994.8   869956.2
  289.000     7.433     8.129     0.311     0.085     0.000  116144.2   863292.9
  289.500     7.429     8.121     0.311     0.085     0.000  116034.9   862073.7
  290.000     7.425     8.115     0.310     0.085     0.000  115198.7   855319.4
  290.500     7.419     8.105     0.310     0.085     0.000  115027.5   853409.8
  291.000     7.412     8.098     0.309     0.084     0.000  114261.9   846941.1
  291.500     7.404     8.086     0.309     0.084     0.000  114019.1   844237.1
  292.000     7.395     8.076     0.309     0.084     0.000  113750.0   841187.6
  292.500     7.384     8.064     0.309     0.084     0.000  113424.9   837580.1
  293.000     7.373     8.051     0.309     0.084     0.000  113131.9   834077.5
  293.500     7.360     8.037     0.309     0.084     0.000  112734.4   829683.3
  294.000     7.346     8.022     0.309     0.084     0.000  112483.5   826269.2
  294.500     7.331     8.007     0.309     0.084     0.000  112028.2   821260.9
  295.000     7.315     7.990     0.310     0.085     0.000  111810.5   817932.8
  295.500     7.299     7.974     0.310     0.085     0.000  111315.2   812515.0
  296.000     7.283     7.956     0.311     0.085     0.000  111248.4   810198.1
  296.500     7.266     7.940     0.311     0.085     0.000  110727.4   804534.2
  297.000     7.249     7.922     0.313     0.086     0.000  111217.7   806213.0
  297.500     7.231     7.909     0.313     0.086     0.000  110673.3   800332.4
  298.000     7.214     7.890     0.315     0.086     0.000  110810.4   799407.5
  298.500     7.197     7.875     0.315     0.086     0.000  110264.0   793544.1
  299.000     7.180     7.856     0.318     0.087     0.000  111001.9   796957.6
  299.500     7.162     7.845     0.318     0.087     0.000  110448.5   791055.4
  300.000     7.145     7.826     0.319     0.087     0.000  110395.3   788796.6
  300.500     7.128     7.811     0.319     0.087     0.000  109860.2   783122.8
  301.000     7.112     7.793     0.324     0.089     0.000  111358.4   791978.3
  301.500     7.095     7.787     0.324     0.089     0.000  110805.1   786140.7
  302.000     7.078     7.768     0.327     0.090     0.000  111570.5   789705.2
  302.500     7.061     7.758     0.327     0.090     0.000  111014.6   783867.4
  303.000     7.044     7.739     0.330     0.091     0.000  111831.2   787751.4
  303.500     7.027     7.729     0.330     0.091     0.000  111261.3   781792.5
  304.000     7.009     7.709     0.334     0.092     0.000  112031.6   785253.2
  304.500     6.991     7.698     0.334     0.092     0.000  111431.1   778997.9
  305.000     6.972     7.677     0.337     0.093     0.000  112170.9   782078.3
  305.500     6.952     7.664     0.337     0.093     0.000  111517.0   775294.5
  306.000     6.932     7.641     0.340     0.094     0.000  112135.2   777284.3
  306.500     6.910     7.625     0.340     0.094     0.000  111408.0   769774.8
  307.000     6.886     7.599     0.343     0.095     0.000  111951.8   770953.4
  307.500     6.862     7.580     0.343     0.095     0.000  111139.2   762607.6
  308.000     6.836     7.552     0.346     0.096     0.000  111396.6   761523.2
  308.500     6.809     7.529     0.346     0.096     0.000  110511.3   752491.3
  309.000     6.782     7.499     0.349     0.096     0.000  110666.5   750516.3
  309.500     6.754     7.475     0.349     0.096     0.000  109744.0   741175.7
  310.000     6.726     7.444     0.351     0.097     0.000  109541.3   736777.1
  310.500     6.699     7.419     0.351     0.097     0.000  108653.7   727867.1
  311.000     6.674     7.391     0.353     0.098     0.000  108776.3   725930.9
  311.500     6.650     7.371     0.353     0.098     0.000  107999.2   718203.8
  312.000     6.630     7.349     0.355     0.098     0.000  108144.1   716961.2
  312.500     6.613     7.335     0.355     0.098     0.000  107568.5   711303.2
  313.000     6.600     7.321     0.357     0.099     0.000  107932.4   712330.0
  313.500     6.591     7.317     0.357     0.099     0.000  107628.3   709406.5
  314.000     6.588     7.313     0.360     0.100     0.000  108469.7   714575.5
  314.500     6.589     7.321     0.360     0.100     0.000  108469.0   714684.8
  315.000     6.595     7.328     0.362     0.101     0.000  109556.7   722522.5
  315.500     6.605     7.345     0.362     0.101     0.000  109858.6   725655.7
  316.000     6.620     7.362     0.365     0.101     0.000  111195.1   736140.9
  316.500     6.639     7.388     0.365     0.101     0.000  111762.6   741950.8
  317.000     6.660     7.413     0.367     0.102     0.000  113273.9   754458.8
  317.500     6.685     7.445     0.367     0.102     0.000  114045.6   762359.5
  318.000     6.711     7.475     0.369     0.103     0.000  115634.5   776039.8
  318.500     6.739     7.510     0.369     0.103     0.000  116537.6   785318.3
  319.000     6.767     7.542     0.370     0.103     0.000  118099.5   799227.2
  319.500     6.796     7.578     0.370     0.103     0.000  119064.2   809181.3
  320.000     6.825     7.611     0.371     0.104     0.000  120474.8   822243.8
  320.500     6.853     7.645     0.371     0.104     0.000  121448.5   832330.4
  321.000     6.881     7.676     0.372     0.104     0.000  122708.4   844384.4
  321.500     6.908     7.708     0.372     0.104     0.000  123663.8   854312.5
  322.000     6.935     7.738     0.372     0.104     0.000  124674.9   864607.3
  322.500     6.961     7.767     0.372     0.104     0.000  125611.6   874369.8
  323.000     6.987     7.796     0.372     0.104     0.000  126423.5   883261.9
  323.500     7.012     7.824     0.372     0.104     0.000  127356.1   893019.1
  324.000     7.037     7.852     0.371     0.103     0.000  127873.2   899882.7
  324.500     7.063     7.878     0.371     0.103     0.000  128817.9   909816.6
  325.000     7.088     7.906     0.370     0.103     0.000  129231.9   916024.3
  325.500     7.114     7.931     0.370     0.103     0.000  130186.5   926116.2
  326.000     7.139     7.959     0.368     0.103     0.000  130522.1   931786.0
  326.500     7.164     7.983     0.368     0.103     0.000  131458.5   941735.5
  327.000     7.188     8.009     0.367     0.102     0.000  131741.6   946895.0
  327.500     7.210     8.031     0.367     0.102     0.000  132605.8   956111.1
  328.000     7.231     8.054     0.365     0.102     0.000  132678.6   959380.2
  328.500     7.250     8.070     0.365     0.102     0.000  133403.8   967119.2
  329.000     7.265     8.088     0.364     0.101     0.000  133418.6   969337.0
  329.500     7.278     8.098     0.364     0.101     0.000  133936.7   974835.5
  330.000     7.288     8.109     0.363     0.101     0.000  133954.7   976225.9
  330.500     7.294     8.113     0.363     0.101     0.000  134216.7   978929.4
  331.000     7.296     8.116     0.364     0.101     0.000  134458.9   980984.7
  331.500     7.294     8.115     0.364     0.101     0.000  134445.1   980668.0
  332.000     7.289     8.109     0.364     0.101     0.000  134732.3   982081.6
  332.500     7.281     8.102     0.364     0.101     0.000  134466.0   979006.2
  333.000     7.270     8.090     0.366     0.102     0.000  134835.7   980202.5
  333.500     7.256     8.079     0.366     0.102     0.000  134373.6   975005.0
  334.000     7.241     8.062     0.367     0.102     0.000  134510.8   973953.5
  334.500     7.224     8.048     0.367     0.102     0.000  133939.6   967599.4
  335.000     7.207     8.029     0.370     0.103     0.000  134315.4   968045.0
  335.500     7.190     8.016     0.370     0.103     0.000  133715.0   961412.2
  336.000     7.174     7.997     0.372     0.104     0.000  134289.5   963336.0
  336.500     7.158     7.987     0.372     0.104     0.000  133733.4   957224.9
  337.000     7.144     7.971     0.374     0.105     0.000  134296.5   959352.4
  337.500     7.131     7.963     0.374     0.105     0.000  133846.9   954426.5
  338.000     7.120     7.951     0.377     0.105     0.000  134737.7   959353.7
  338.500     7.111     7.949     0.377     0.105     0.000  134422.8   955900.9
  339.000     7.105     7.942     0.380     0.106     0.000  135543.7   962972.5
  339.500     7.099     7.944     0.380     0.106     0.000  135365.3   961001.5
  340.000     7.096     7.941     0.383     0.107     0.000  136770.0   970549.6
  340.500     7.094     7.948     0.383     0.107     0.000  136699.3   969746.1
  341.000     7.093     7.947     0.387     0.109     0.000  138257.4   980700.3
  341.500     7.093     7.956     0.387     0.109     0.000  138244.4   980528.4
  342.000     7.093     7.956     0.391     0.110     0.000  140149.3   994058.4
  342.500     7.092     7.967     0.391     0.110     0.000  140124.4   993778.4
  343.000     7.091     7.966     0.395     0.111     0.000  142056.2  1007363.1
  343.500     7.089     7.976     0.395     0.111     0.000  141956.2  1006304.2
  344.000     7.086     7.972     0.400     0.113     0.000  143778.4  1018762.6
  344.500     7.080     7.978     0.400     0.113     0.000  143553.8  1016400.9
  345.000     7.074     7.971     0.404     0.114     0.000  145210.3  1027183.9
  345.500     7.065     7.973     0.404     0.114     0.000  144830.2  1023196.0
  346.000     7.054     7.961     0.408     0.115     0.000  146268.9  1031853.0
  346.500     7.042     7.959     0.408     0.115     0.000  145721.0  1026119.3
  347.000     7.027     7.943     0.411     0.116     0.000  146699.2  1030927.8
  347.500     7.011     7.934     0.411     0.116     0.000  145992.6  1023554.9
  348.000     6.993     7.914     0.414     0.117     0.000  146627.0  1025398.3
  348.500     6.973     7.900     0.414     0.117     0.000  145778.5  1016572.1
  349.000     6.952     7.876     0.416     0.118     0.000  145749.9  1013321.0
  349.500     6.930     7.856     0.416     0.118     0.000  144798.7  1003457.3
  350.000     6.907     7.830     0.418     0.118     0.000  144520.5   998172.0
  350.500     6.883     7.807     0.418     0.118     0.000  143505.6   987683.1
  351.000     6.858     7.779     0.419     0.119     0.000  143018.4   980820.4
  351.500     6.833     7.755     0.419     0.119     0.000  141989.5   970232.5
  352.000     6.809     7.727     0.420     0.119     0.000  141498.6   963403.0
  352.500     6.784     7.702     0.420     0.119     0.000  140504.8   953230.9
  353.000     6.761     7.676     0.421     0.120     0.000  140066.6   946995.3
  353.500     6.739     7.654     0.421     0.120     0.000  139151.4   937690.8
  354.000     6.718     7.630     0.422     0.120     0.000  138788.4   932335.1
  354.500     6.698     7.611     0.422     0.120     0.000  137981.5   924199.2
  355.000     6.680     7.591     0.424     0.120     0.000  137831.2   920710.8
  355.500     6.663     7.576     0.424     0.120     0.000  137138.9   913798.1
  356.000     6.648     7.558     0.425     0.121     0.000  137039.4   911072.0
  356.500     6.634     7.546     0.425     0.121     0.000  136452.7   905277.4
  357.000     6.622     7.532     0.426     0.121     0.000  136432.0   903426.9
  357.500     6.610     7.522     0.426     0.121     0.000  135923.6   898461.4
  358.000     6.599     7.510     0.427     0.121     0.000  135671.2   895314.5
  358.500     6.589     7.499     0.427     0.121     0.000  135213.7   890887.5
  359.000     6.579     7.488     0.427     0.122     0.000  135066.1   888562.9
  359.500     6.569     7.478     0.427     0.122     0.000  134624.0   884311.8
  360.000     6.559     7.467     0.429     0.122     0.000  134664.5   883250.4
  360.500     6.549     7.459     0.429     0.122     0.000  134217.8   878970.5
  361.000     6.539     7.448     0.430     0.122     0.000  134275.1   878022.5
  361.500     6.529     7.440     0.430     0.122     0.000  133840.9   873878.0
  362.000     6.520     7.430     0.431     0.123     0.000  134086.2   874275.4
  362.500     6.512     7.425     0.431     0.123     0.000  133717.4   870779.2
  363.000     6.506     7.418     0.433     0.124     0.000  134129.1   872608.2
  363.500     6.501     7.417     0.433     0.124     0.000  133917.2   870644.9
  364.000     6.500     7.416     0.435     0.124     0.000  134644.3   875201.9
  364.500     6.502     7.424     0.435     0.124     0.000  134696.5   875803.5
  365.000     6.508     7.431     0.437     0.125     0.000  135852.9   884166.8
  365.500     6.519     7.449     0.437     0.125     0.000  136265.2   888257.0
  366.000     6.534     7.466     0.439     0.126     0.000  137818.2   900482.5
  366.500     6.554     7.495     0.439     0.126     0.000  138647.5   908627.6
  367.000     6.578     7.523     0.442     0.126     0.000  140586.7   924778.6
  367.500     6.606     7.562     0.442     0.126     0.000  141826.0   936960.5
  368.000     6.639     7.599     0.443     0.127     0.000  144050.3   956316.1
  368.500     6.674     7.644     0.443     0.127     0.000  145622.5   971867.6
  369.000     6.711     7.687     0.445     0.127     0.000  147914.7   992723.9
  369.500     6.750     7.736     0.445     0.127     0.000  149686.8  1010426.9
  370.000     6.790     7.781     0.445     0.128     0.000  151823.7  1030853.7
  370.500     6.829     7.828     0.445     0.128     0.000  153639.5  1049211.1
  371.000     6.867     7.872     0.446     0.128     0.000  155503.8  1067914.4
  371.500     6.904     7.915     0.446     0.128     0.000  157226.8  1085554.6
  372.000     6.939     7.955     0.445     0.128     0.000  158771.1  1101791.1
  372.500     6.973     7.993     0.445     0.128     0.000  160316.4  1117817.7
  373.000     7.003     8.028     0.445     0.127     0.000  161500.0  1131057.9
  373.500     7.032     8.059     0.445     0.127     0.000  162839.1  1145129.5
  374.000     7.059     8.090     0.444     0.127     0.000  163679.8  1155403.5
  374.500     7.084     8.116     0.444     0.127     0.000  164818.0  1167519.3
  375.000     7.106     8.142     0.443     0.127     0.000  165428.5  1175595.4
  375.500     7.127     8.163     0.443     0.127     0.000  166379.1  1185824.1
  376.000     7.146     8.185     0.443     0.127     0.000  167143.4  1194419.5
  376.500     7.163     8.203     0.443     0.127     0.000  167911.9  1202746.7
  377.000     7.178     8.221     0.441     0.126     0.000  167694.3  1203693.5
  377.500     7.192     8.231     0.441     0.126     0.000  168321.5  1210494.7
  378.000     7.204     8.244     0.440     0.126     0.000  168208.9  1211694.5
  378.500     7.214     8.253     0.440     0.126     0.000  168716.2  1217174.6
  379.000     7.224     8.263     0.439     0.125     0.000  168657.5  1218347.5
  379.500     7.232     8.270     0.439     0.125     0.000  169073.9  1222817.2
  380.000     7.240     8.279     0.438     0.125     0.000  169002.3  1223599.5
  380.500     7.247     8.284     0.438     0.125     0.000  169357.2  1227389.4
  381.000     7.254     8.292     0.437     0.125     0.000  169377.5  1228652.4
  381.500     7.260     8.297     0.437     0.125     0.000  169688.9  1231975.1
  382.000     7.266     8.304     0.438     0.125     0.000  170189.9  1236607.1
  382.500     7.271     8.311     0.438     0.125     0.000  170455.5  1239447.7
  383.000     7.276     8.317     0.436     0.125     0.000  169844.8  1235858.2
  383.500     7.282     8.318     0.436     0.125     0.000  170098.7  1238592.0
  384.000     7.286     8.323     0.436     0.125     0.000  170297.6  1240860.6
  384.500     7.291     8.328     0.436     0.125     0.000  170509.7  1243156.8
  385.000     7.295     8.333     0.436     0.124     0.000  170575.7  1244305.8
  385.500     7.298     8.336     0.436     0.124     0.000  170736.7  1246065.1
  386.000     7.301     8.339     0.436     0.124     0.000  170750.8  1246643.0
  386.500     7.303     8.341     0.436     0.124     0.000  170845.8  1247703.0
  387.000     7.304     8.342     0.437     0.125     0.000  171379.7  1251836.0
  387.500     7.305     8.345     0.437     0.125     0.000  171381.1  1251893.9
  388.000     7.304     8.345     0.438     0.125     0.000  171873.1  1255401.3
  388.500     7.303     8.346     0.438     0.125     0.000  171783.2  1254477.7
  389.000     7.301     8.344     0.439     0.125     0.000  172303.6  1257903.6
  389.500     7.297     8.344     0.439     0.125     0.000  172138.2  1256167.6
  390.000     7.294     8.340     0.440     0.126     0.000  172783.7  1260288.1
  390.500     7.290     8.341     0.440     0.126     0.000  172567.7  1258001.3
  391.000     7.286     8.336     0.442     0.127     0.000  173244.7  1262218.4
  391.500     7.281     8.336     0.442     0.127     0.000  173009.9  1259716.4
  392.000     7.277     8.331     0.444     0.127     0.000  173782.3  1264593.3
  392.500     7.272     8.332     0.444     0.127     0.000  173555.5  1262156.8
  393.000     7.268     8.327     0.446     0.128     0.000  174283.2  1266748.6
  393.500     7.264     8.329     0.446     0.128     0.000  174089.2  1264641.6
  394.000     7.261     8.325     0.448     0.128     0.000  174822.4  1269387.0
  394.500     7.258     8.327     0.448     0.128     0.000  174677.4  1267783.8
  395.000     7.255     8.324     0.449     0.129     0.000  175330.6  1272110.6
  395.500     7.253     8.326     0.449     0.129     0.000  175246.5  1271144.2
  396.000     7.252     8.325     0.450     0.129     0.000  175762.5  1274674.1
  396.500     7.251     8.327     0.450     0.129     0.000  175744.7  1274411.0
  397.000     7.251     8.327     0.450     0.129     0.000  175937.4  1275805.9
  397.500     7.252     8.329     0.450     0.129     0.000  175986.9  1276261.8
  398.000     7.253     8.330     0.450     0.129     0.000  176060.3  1276989.5
  398.500     7.255     8.332     0.450     0.129     0.000  176160.2  1277985.0
  399.000     7.256     8.334     0.450     0.129     0.000  176029.9  1277359.3
  399.500     7.259     8.335     0.450     0.129     0.000  176157.9  1278657.0
  400.000     7.261     8.337     0.449     0.129     0.000  175842.7  1276732.4
  400.500     7.263     8.337     0.449     0.129     0.000  175974.9  1278077.6
  401.000     7.265     8.339     0.447     0.128     0.000  174916.4  1270726.7
  401.500     7.267     8.335     0.447     0.128     0.000  175052.4  1272120.5
  402.000     7.269     8.337     0.445     0.127     0.000  174002.9  1264828.2
  402.500     7.271     8.333     0.445     0.127     0.000  174131.5  1266154.0
  403.000     7.273     8.335     0.442     0.127     0.000  172898.2  1257509.3
  403.500     7.275     8.329     0.442     0.127     0.000  173029.2  1258873.8
  404.000     7.278     8.332     0.442     0.126     0.000  172933.6  1258546.2
  404.500     7.280     8.333     0.442     0.126     0.000  173051.0  1259769.6
  405.000     7.282     8.335     0.438     0.125     0.000  171195.5  1246625.7
  405.500     7.285     8.327     0.438     0.125     0.000  171371.6  1248492.7
  406.000     7.289     8.331     0.436     0.125     0.000  170767.2  1244688.4
  406.500     7.293     8.331     0.436     0.125     0.000  170975.9  1246913.2
  407.000     7.297     8.336     0.435     0.124     0.000  170261.6  1242424.2
  407.500     7.302     8.336     0.435     0.124     0.000  170502.9  1245015.1
  408.000     7.307     8.341     0.433     0.123     0.000  169758.2  1240402.0
  408.500     7.312     8.341     0.433     0.123     0.000  170013.6  1243174.6
  409.000     7.317     8.347     0.431     0.123     0.000  169377.6  1239380.0
  409.500     7.322     8.348     0.431     0.123     0.000  169614.1  1241986.0
  410.000     7.327     8.353     0.429     0.122     0.000  168818.1  1236928.5
  410.500     7.331     8.352     0.429     0.122     0.000  169008.2  1239066.9
  411.000     7.335     8.356     0.428     0.122     0.000  168698.3  1237384.1
  411.500     7.338     8.356     0.428     0.122     0.000  168803.6  1238616.1
  412.000     7.339     8.358     0.427     0.122     0.000  168268.6  1234957.2
  412.500     7.340     8.355     0.427     0.122     0.000  168283.7  1235192.9
  413.000     7.339     8.355     0.427     0.121     0.000  168056.2  1233443.9
  413.500     7.338     8.352     0.427     0.121     0.000  167975.4  1232596.5
  414.000     7.335     8.349     0.426     0.121     0.000  167627.2  1229613.4
  414.500     7.332     8.344     0.426     0.121     0.000  167476.9  1227965.0
  415.000     7.328     8.340     0.426     0.121     0.000  167158.3  1224989.9
  415.500     7.324     8.334     0.426     0.121     0.000  166985.0  1223062.2
  416.000     7.321     8.330     0.426     0.121     0.000  166793.2  1221036.4
  416.500     7.318     8.327     0.426     0.121     0.000  166665.9  1219603.8
  417.000     7.316     8.324     0.427     0.121     0.000  167033.7  1221993.5
  417.500     7.315     8.327     0.427     0.121     0.000  167023.0  1221849.3
  418.000     7.317     8.329     0.428     0.122     0.000  167697.3  1227071.5
  418.500     7.321     8.337     0.428     0.122     0.000  167871.9  1228987.5
  419.000     7.327     8.344     0.429     0.122     0.000  168868.2  1237369.0
  419.500     7.336     8.358     0.429     0.122     0.000  169255.9  1241673.1
  420.000     7.347     8.371     0.431     0.123     0.000  170480.3  1252548.6
  420.500     7.360     8.390     0.431     0.123     0.000  171049.1  1258907.4
  421.000     7.374     8.406     0.432     0.123     0.000  172489.2  1271971.2
  421.500     7.389     8.427     0.432     0.123     0.000  173144.2  1279342.1
  422.000     7.404     8.444     0.434     0.124     0.000  174593.3  1292640.2
  422.500     7.418     8.465     0.434     0.124     0.000  175207.9  1299605.2
  423.000     7.430     8.479     0.435     0.124     0.000  176336.1  1310190.7
  423.500     7.441     8.495     0.435     0.124     0.000  176797.9  1315472.1
  424.000     7.449     8.504     0.436     0.125     0.000  177888.1  1325066.1
  424.500     7.454     8.515     0.436     0.125     0.000  178119.7  1327777.2
  425.000     7.458     8.518     0.438     0.125     0.000  179106.9  1335700.5
  425.500     7.458     8.524     0.438     0.125     0.000  179089.6  1335628.2
  426.000     7.456     8.522     0.439     0.126     0.000  179720.5  1340014.7
  426.500     7.452     8.522     0.439     0.126     0.000  179488.6  1337553.8
  427.000     7.446     8.515     0.441     0.126     0.000  180136.4  1341365.2
  427.500     7.439     8.512     0.441     0.126     0.000  179730.3  1336983.2
  428.000     7.430     8.502     0.442     0.127     0.000  180092.5  1338119.0
  428.500     7.420     8.496     0.442     0.127     0.000  179557.0  1332321.2
  429.000     7.409     8.483     0.444     0.127     0.000  179765.4  1331894.5
  429.500     7.397     8.474     0.444     0.127     0.000  179125.8  1324959.8
  430.000     7.384     8.459     0.445     0.128     0.000  179176.3  1323003.0
  430.500     7.370     8.447     0.445     0.128     0.000  178451.8  1315128.4
  431.000     7.355     8.430     0.446     0.128     0.000  178223.9  1310820.6
  431.500     7.339     8.415     0.446     0.128     0.000  177447.5  1302356.7
  432.000     7.324     8.397     0.447     0.128     0.000  176998.0  1296269.1
  432.500     7.308     8.381     0.447     0.128     0.000  176223.4  1287793.4
  433.000     7.292     8.363     0.447     0.128     0.000  175614.5  1280622.2
  433.500     7.277     8.347     0.447     0.128     0.000  174915.4  1272935.8
  434.000     7.264     8.332     0.446     0.128     0.000  173852.6  1262835.9
  434.500     7.252     8.315     0.446     0.128     0.000  173320.6  1256933.0
  435.000     7.242     8.304     0.445     0.127     0.000  172213.0  1247201.6
  435.500     7.235     8.292     0.445     0.127     0.000  171910.1  1243753.7
  436.000     7.230     8.286     0.443     0.127     0.000  170549.2  1233054.6
  436.500     7.228     8.276     0.443     0.127     0.000  170508.2  1232427.1
  437.000     7.228     8.277     0.440     0.126     0.000  169092.4  1222243.4
  437.500     7.232     8.271     0.440     0.126     0.000  169294.6  1224254.2
  438.000     7.236     8.277     0.436     0.125     0.000  167938.2  1215282.3
  438.500     7.244     8.276     0.436     0.125     0.000  168327.1  1219341.9
  439.000     7.252     8.285     0.433     0.124     0.000  167211.4  1212670.7
  439.500     7.262     8.287     0.433     0.124     0.000  167716.7  1218031.4
  440.000     7.273     8.299     0.430     0.123     0.000  166697.1  1212385.3
  440.500     7.285     8.303     0.430     0.123     0.000  167266.7  1218491.1
  441.000     7.297     8.317     0.428     0.122     0.000  166772.0  1216856.7
  441.500     7.309     8.324     0.428     0.122     0.000  167364.2  1223262.2
  442.000     7.321     8.338     0.427     0.121     0.000  166982.5  1222534.6
  442.500     7.334     8.347     0.427     0.121     0.000  167578.6  1229040.0
  443.000     7.347     8.361     0.425     0.121     0.000  167133.7  1227864.7
  443.500     7.359     8.370     0.425     0.121     0.000  167717.4  1234286.0
  444.000     7.371     8.383     0.423     0.120     0.000  167351.8  1233626.4
  444.500     7.383     8.391     0.423     0.120     0.000  167894.2  1239629.6
  445.000     7.394     8.404     0.421     0.120     0.000  167390.1  1237744.7
  445.500     7.405     8.410     0.421     0.120     0.000  167861.6  1242982.6
  446.000     7.414     8.420     0.419     0.119     0.000  167205.0  1239639.5
  446.500     7.422     8.423     0.419     0.119     0.000  167576.9  1243776.3
  447.000     7.429     8.431     0.417     0.118     0.000  166792.4  1239052.3
  447.500     7.434     8.430     0.417     0.118     0.000  167042.4  1241831.1
  448.000     7.438     8.435     0.414     0.117     0.000  166014.8  1234806.1
  448.500     7.441     8.430     0.414     0.117     0.000  166135.2  1236135.5
  449.000     7.441     8.431     0.412     0.117     0.000  165085.0  1228447.4
  449.500     7.441     8.424     0.412     0.117     0.000  165073.1  1228297.7
  450.000     7.439     8.422     0.411     0.116     0.000  164059.1  1220401.7
  450.500     7.436     8.413     0.411     0.116     0.000  163919.5  1218829.5
  451.000     7.431     8.407     0.409     0.116     0.000  163026.2  1211393.7
  451.500     7.425     8.396     0.409     0.116     0.000  162767.9  1208507.0
  452.000     7.417     8.388     0.408     0.115     0.000  161903.3  1200901.0
  452.500     7.409     8.376     0.408     0.115     0.000  161544.5  1196909.6
  453.000     7.400     8.365     0.408     0.115     0.000  160744.9  1189488.6
  453.500     7.390     8.351     0.408     0.115     0.000  160311.0  1184681.7
  454.000     7.379     8.339     0.407     0.115     0.000  159412.5  1176348.1
  454.500     7.369     8.325     0.407     0.115     0.000  158945.2  1171189.3
  455.000     7.358     8.312     0.406     0.115     0.000  157965.9  1162253.8
  455.500     7.347     8.298     0.406     0.115     0.000  157517.2  1157317.1
  456.000     7.337     8.286     0.405     0.114     0.000  156561.2  1148745.6
  456.500     7.329     8.273     0.405     0.114     0.000  156186.0  1144628.7
  457.000     7.321     8.265     0.403     0.114     0.000  155054.8  1135157.5
  457.500     7.315     8.253     0.403     0.114     0.000  154808.4  1132462.8
  458.000     7.311     8.249     0.401     0.113     0.000  153583.8  1122859.0
  458.500     7.309     8.240     0.401     0.113     0.000  153501.0  1121962.5
  459.000     7.309     8.240     0.398     0.112     0.000  152269.2  1112926.7
  459.500     7.311     8.235     0.398     0.112     0.000  152357.1  1113901.8
  460.000     7.315     8.239     0.396     0.111     0.000  151296.1  1106703.7
  460.500     7.321     8.238     0.396     0.111     0.000  151533.7  1109319.4
  461.000     7.328     8.246     0.394     0.111     0.000  150617.1  1103651.1
  461.500     7.336     8.248     0.394     0.111     0.000  150969.3  1107523.9
  462.000     7.345     8.259     0.391     0.110     0.000  150346.1  1104335.9
  462.500     7.356     8.264     0.391     0.110     0.000  150767.8  1108974.8
  463.000     7.366     8.276     0.390     0.109     0.000  150404.3  1107860.1
  463.500     7.377     8.283     0.390     0.109     0.000  150849.2  1112758.3
  464.000     7.387     8.295     0.389     0.109     0.000  150710.9  1113302.8
  464.500     7.397     8.303     0.389     0.109     0.000  151131.0  1117932.1
  465.000     7.406     8.313     0.388     0.109     0.000  151130.2  1119315.7
  465.500     7.415     8.320     0.388     0.109     0.000  151476.9  1123135.2
  466.000     7.421     8.328     0.388     0.109     0.000  151764.6  1126304.3
  466.500     7.427     8.333     0.388     0.109     0.000  151986.0  1128731.7
  467.000     7.430     8.337     0.388     0.109     0.000  152178.4  1130661.3
  467.500     7.431     8.339     0.388     0.109     0.000  152238.5  1131295.2
  468.000     7.430     8.338     0.388     0.109     0.000  152346.8  1131961.2
  468.500     7.427     8.335     0.388     0.109     0.000  152224.4  1130566.9
  469.000     7.422     8.329     0.389     0.109     0.000  152158.9  1129266.9
  469.500     7.414     8.321     0.389     0.109     0.000  151857.0  1125886.8
  470.000     7.405     8.311     0.389     0.109     0.000  151713.4  1123396.9
  470.500     7.394     8.300     0.389     0.109     0.000  151257.9  1118332.5
  471.000     7.381     8.286     0.389     0.109     0.000  150823.3  1113231.9
  471.500     7.367     8.271     0.389     0.109     0.000  150268.7  1107102.9
  472.000     7.353     8.255     0.390     0.109     0.000  149926.5  1102461.0
  472.500     7.339     8.240     0.390     0.109     0.000  149328.1  1095893.2
  473.000     7.324     8.224     0.391     0.110     0.000  149157.0  1092494.4
  473.500     7.310     8.211     0.391     0.110     0.000  148566.6  1086067.6
  474.000     7.297     8.196     0.392     0.110     0.000  148613.4  1084417.3
  474.500     7.284     8.185     0.392     0.110     0.000  148069.0  1078544.9
  475.000     7.272     8.172     0.394     0.111     0.000  148377.2  1079048.6
  475.500     7.261     8.164     0.394     0.111     0.000  147896.1  1073912.5
  476.000     7.251     8.153     0.396     0.111     0.000  148434.1  1076350.5
  476.500     7.242     8.149     0.396     0.111     0.000  148016.5  1071937.4
  477.000     7.234     8.139     0.398     0.112     0.000  148690.3  1075585.3
  477.500     7.226     8.137     0.398     0.112     0.000  148326.0  1071769.0
  478.000     7.219     8.129     0.400     0.113     0.000  149053.1  1075966.6
  478.500     7.212     8.127     0.400     0.113     0.000  148727.1  1072572.3
  479.000     7.205     8.120     0.402     0.113     0.000  149402.9  1076495.7
  479.500     7.199     8.119     0.402     0.113     0.000  149099.4  1073344.5
  480.000     7.193     8.112     0.404     0.114     0.000  149654.7  1076429.9
  480.500     7.186     8.110     0.404     0.114     0.000  149356.2  1073327.7
  481.000     7.180     8.103     0.405     0.114     0.000  149769.8  1075353.8
  481.500     7.173     8.100     0.405     0.114     0.000  149454.4  1072064.5
  482.000     7.166     8.092     0.406     0.115     0.000  149587.8  1071956.7
  482.500     7.158     8.086     0.406     0.115     0.000  149233.9  1068252.4
  483.000     7.150     8.076     0.407     0.115     0.000  149041.4  1065621.8
  483.500     7.141     8.067     0.407     0.115     0.000  148630.4  1061309.9
  484.000     7.131     8.055     0.406     0.115     0.000  148145.0  1056355.3
  484.500     7.120     8.043     0.406     0.115     0.000  147667.7  1051341.8
  485.000     7.108     8.030     0.406     0.115     0.000  146968.5  1044631.3
  485.500     7.095     8.014     0.406     0.115     0.000  146431.3  1038978.4
  486.000     7.082     7.999     0.405     0.114     0.000  145561.1  1030866.3
  486.500     7.068     7.982     0.405     0.114     0.000  144988.2  1024810.9
  487.000     7.054     7.965     0.405     0.114     0.000  144142.0  1016765.1
  487.500     7.039     7.947     0.405     0.114     0.000  143561.3  1010579.4
  488.000     7.025     7.931     0.404     0.114     0.000  142823.4  1003263.4
  488.500     7.010     7.913     0.404     0.114     0.000  142252.7   997124.1
  489.000     6.994     7.896     0.404     0.114     0.000  141674.4   990915.5
  489.500     6.979     7.878     0.404     0.114     0.000  141106.0   984751.9
  490.000     6.963     7.860     0.405     0.114     0.000  140859.4   980785.8
  490.500     6.946     7.843     0.405     0.114     0.000  140253.3   974217.6
  491.000     6.929     7.823     0.406     0.115     0.000  140092.8   970650.8
  491.500     6.910     7.805     0.406     0.115     0.000  139405.8   963286.0
  492.000     6.890     7.783     0.408     0.115     0.000  139357.5   960216.3
  492.500     6.869     7.764     0.408     0.115     0.000  138561.9   951829.8
  493.000     6.848     7.739     0.410     0.116     0.000  138597.5   949064.9
  493.500     6.825     7.719     0.410     0.116     0.000  137703.5   939809.4
  494.000     6.802     7.693     0.412     0.117     0.000  137861.3   937729.1
  494.500     6.779     7.674     0.412     0.117     0.000  136919.2   928134.6
  495.000     6.756     7.649     0.415     0.118     0.000  137286.9   927541.3
  495.500     6.734     7.632     0.415     0.118     0.000  136371.5   918361.6
  496.000     6.714     7.609     0.418     0.119     0.000  136878.1   919015.1
  496.500     6.695     7.597     0.418     0.119     0.000  136066.9   911017.0
  497.000     6.679     7.578     0.422     0.120     0.000  136736.8   913283.5
  497.500     6.665     7.571     0.422     0.120     0.000  136074.6   906893.4
  498.000     6.653     7.558     0.425     0.121     0.000  136877.5   910616.3
  498.500     6.642     7.555     0.425     0.121     0.000  136358.4   905734.3
  499.000     6.634     7.545     0.427     0.122     0.000  136937.7   908407.1
  499.500     6.626     7.543     0.427     0.122     0.000  136523.3   904591.6
  500.000     6.619     7.535     0.429     0.122     0.000  137083.8   907367.3
  500.500     6.612     7.534     0.429     0.122     0.000  136717.6   904006.7
  501.000     6.606     7.526     0.425     0.121     0.000  134556.7   888837.7
  501.500     6.600     7.508     0.425     0.121     0.000  134276.4   886278.7
  502.000     6.595     7.502     0.426     0.121     0.000  134466.7   886821.5
  502.500     6.589     7.499     0.426     0.121     0.000  134186.4   884214.9
  503.000     6.584     7.492     0.427     0.121     0.000  134039.7   882497.8
  503.500     6.578     7.487     0.427     0.121     0.000  133777.7   880037.0
  504.000     6.573     7.481     0.426     0.121     0.000  133477.4   877371.6
  504.500     6.569     7.476     0.426     0.121     0.000  133258.5   875312.8
  505.000     6.564     7.471     0.426     0.121     0.000  133098.2   873722.6
  505.500     6.561     7.467     0.426     0.121     0.000  132938.5   872231.9
  506.000     6.559     7.464     0.427     0.121     0.000  132865.0   871412.7
  506.500     6.557     7.463     0.427     0.121     0.000  132773.8   870581.0
  507.000     6.556     7.462     0.427     0.122     0.000  132870.5   871086.5
  507.500     6.556     7.462     0.427     0.122     0.000  132840.8   870843.6
  508.000     6.556     7.463     0.427     0.122     0.000  133007.9   871968.8
  508.500     6.556     7.464     0.427     0.122     0.000  133022.9   872141.6
  509.000     6.557     7.465     0.428     0.122     0.000  133275.0   873907.5
  509.500     6.558     7.468     0.428     0.122     0.000  133311.2   874258.7
  510.000     6.559     7.469     0.428     0.122     0.000  133570.4   876075.4
  510.500     6.560     7.471     0.428     0.122     0.000  133609.9   876425.8
  511.000     6.560     7.472     0.429     0.122     0.000  133752.2   877436.9
  511.500     6.561     7.473     0.429     0.122     0.000  133790.0   877738.8
  512.000     6.561     7.473     0.429     0.122     0.000  133817.1   877958.7
  512.500     6.561     7.473     0.429     0.122     0.000  133857.4   878257.6
  513.000     6.561     7.474     0.428     0.122     0.000  133750.6   877588.2
  513.500     6.562     7.473     0.428     0.122     0.000  133803.0   877976.9
  514.000     6.562     7.474     0.428     0.122     0.000  133766.2   877785.1
  514.500     6.563     7.473     0.428     0.122     0.000  133835.2   878303.9
  515.000     6.563     7.474     0.427     0.122     0.000  133666.8   877275.1
  515.500     6.564     7.473     0.427     0.122     0.000  133760.2   878000.1
  516.000     6.565     7.474     0.427     0.121     0.000  133510.9   876492.2
  516.500     6.566     7.474     0.427     0.121     0.000  133630.3   877450.9
  517.000     6.568     7.475     0.426     0.121     0.000  133429.5   876322.9
  517.500     6.569     7.475     0.426     0.121     0.000  133566.4   877451.7
  518.000     6.571     7.477     0.425     0.121     0.000  133342.8   876217.6
  518.500     6.573     7.477     0.425     0.121     0.000  133482.6   877397.4
  519.000     6.575     7.479     0.424     0.121     0.000  133317.1   876553.2
  519.500     6.577     7.479     0.424     0.121     0.000  133438.1   877587.5
  520.000     6.578     7.480     0.424     0.120     0.000  133282.0   876754.9
  520.500     6.579     7.480     0.424     0.120     0.000  133364.2   877454.7
  521.000     6.580     7.481     0.423     0.120     0.000  133137.2   876055.0
  521.500     6.580     7.479     0.423     0.120     0.000  133169.3   876312.2
  522.000     6.580     7.479     0.423     0.120     0.000  133020.9   875307.4
  522.500     6.580     7.477     0.423     0.120     0.000  132999.4   875079.5
  523.000     6.578     7.476     0.423     0.120     0.000  132953.7   874628.9
  523.500     6.577     7.474     0.423     0.120     0.000  132887.5   873991.0
  524.000     6.575     7.472     0.423     0.120     0.000  132886.2   873746.4
  524.500     6.573     7.471     0.423     0.120     0.000  132798.8   872916.8
  525.000     6.571     7.469     0.423     0.120     0.000  132683.4   871917.4
  525.500     6.570     7.467     0.423     0.120     0.000  132611.3   871244.6
  526.000     6.569     7.466     0.423     0.120     0.000  132624.5   871197.1
  526.500     6.569     7.466     0.423     0.120     0.000  132597.1   870965.5
  527.000     6.569     7.466     0.423     0.120     0.000  132614.8   871135.9
  527.500     6.570     7.468     0.423     0.120     0.000  132655.3   871572.5
  528.000     6.572     7.470     0.423     0.120     0.000  132717.0   872272.1
  528.500     6.576     7.474     0.423     0.120     0.000  132832.6   873449.4
  529.000     6.580     7.478     0.422     0.120     0.000  132810.7   873840.7
  529.500     6.585     7.483     0.422     0.120     0.000  132999.8   875745.3
  530.000     6.590     7.489     0.422     0.120     0.000  132928.4   876036.2
  530.500     6.597     7.495     0.422     0.120     0.000  133185.9   878615.8
  531.000     6.604     7.503     0.420     0.119     0.000  132893.5   877660.1
  531.500     6.613     7.509     0.420     0.119     0.000  133224.9   880968.6
  532.000     6.622     7.519     0.419     0.119     0.000  132870.6   879842.2
  532.500     6.632     7.526     0.419     0.119     0.000  133287.6   883994.5
  533.000     6.644     7.539     0.416     0.118     0.000  132847.7   882582.8
  533.500     6.656     7.548     0.416     0.118     0.000  133369.0   887765.7
  534.000     6.670     7.563     0.414     0.117     0.000  132857.4   886212.5
  534.500     6.686     7.574     0.414     0.117     0.000  133500.2   892601.9
  535.000     6.703     7.593     0.413     0.117     0.000  133675.8   896030.6
  535.500     6.721     7.610     0.413     0.117     0.000  134434.8   903586.3
  536.000     6.741     7.633     0.408     0.115     0.000  133226.2   898060.9
  536.500     6.763     7.644     0.408     0.115     0.000  134127.0   907069.4
  537.000     6.786     7.670     0.405     0.114     0.000  133844.5   908222.3
  537.500     6.810     7.690     0.405     0.114     0.000  134851.2   918366.4
  538.000     6.836     7.718     0.402     0.113     0.000  134561.5   919799.3
  538.500     6.862     7.740     0.402     0.113     0.000  135643.2   930816.4
  539.000     6.889     7.770     0.399     0.112     0.000  135406.5   932850.4
  539.500     6.917     7.793     0.399     0.112     0.000  136513.5   944277.1
  540.000     6.945     7.824     0.396     0.112     0.000  136383.3   947116.2
  540.500     6.972     7.847     0.396     0.112     0.000  137446.0   958247.9
  541.000     6.998     7.876     0.394     0.111     0.000  137302.3   960797.1
  541.500     7.022     7.896     0.394     0.111     0.000  138239.2   970750.2
  542.000     7.044     7.921     0.391     0.110     0.000  137914.7   971502.6
  542.500     7.064     7.936     0.391     0.110     0.000  138647.7   979379.0
  543.000     7.080     7.954     0.389     0.109     0.000  138199.4   978419.2
  543.500     7.092     7.961     0.389     0.109     0.000  138671.6   983524.8
  544.000     7.101     7.971     0.387     0.108     0.000  138080.3   980524.5
  544.500     7.106     7.971     0.387     0.108     0.000  138277.3   982639.8
  545.000     7.108     7.973     0.385     0.108     0.000  137536.0   977560.0
  545.500     7.106     7.966     0.385     0.108     0.000  137493.5   977046.0
  546.000     7.102     7.961     0.384     0.107     0.000  136626.1   970276.9
  546.500     7.095     7.949     0.384     0.107     0.000  136420.0   967965.2
  547.000     7.088     7.941     0.382     0.107     0.000  135497.8   960365.9
  547.500     7.079     7.927     0.382     0.107     0.000  135222.5   957299.4
  548.000     7.071     7.918     0.380     0.106     0.000  134189.8   948851.6
  548.500     7.063     7.905     0.380     0.106     0.000  133938.8   946055.3
  549.000     7.057     7.897     0.378     0.106     0.000  132857.5   937521.2
  549.500     7.052     7.886     0.378     0.106     0.000  132704.1   935786.8
  550.000     7.048     7.882     0.376     0.105     0.000  131655.9   927961.0
  550.500     7.047     7.875     0.376     0.105     0.000  131645.3   927770.0
  551.000     7.049     7.877     0.374     0.104     0.000  130562.3   920281.9
  551.500     7.052     7.874     0.374     0.104     0.000  130717.5   921876.5
  552.000     7.058     7.880     0.371     0.103     0.000  129624.7   914920.6
  552.500     7.067     7.881     0.371     0.103     0.000  129940.5   918248.9
  553.000     7.077     7.893     0.367     0.102     0.000  128843.2   911798.7
  553.500     7.089     7.897     0.367     0.102     0.000  129294.1   916599.4
  554.000     7.103     7.913     0.363     0.101     0.000  128005.1   909200.1
  554.500     7.118     7.919     0.363     0.101     0.000  128552.7   915079.7
  555.000     7.134     7.936     0.359     0.100     0.000  127276.4   908018.2
  555.500     7.151     7.944     0.359     0.100     0.000  127866.9   914413.7
  556.000     7.168     7.962     0.355     0.098     0.000  126610.6   907541.1
  556.500     7.185     7.970     0.355     0.098     0.000  127186.8   913838.8
  557.000     7.201     7.988     0.351     0.097     0.000  125948.0   906938.1
  557.500     7.216     7.994     0.351     0.097     0.000  126458.7   912576.4
  558.000     7.230     8.009     0.347     0.096     0.000  125198.6   905203.3
  558.500     7.243     8.013     0.347     0.096     0.000  125608.1   909779.4
  559.000     7.254     8.025     0.343     0.095     0.000  124170.3   900702.0
  559.500     7.264     8.025     0.343     0.095     0.000  124466.0   904059.7
  560.000     7.271     8.033     0.340     0.094     0.000  123006.2   894391.2
  560.500     7.278     8.030     0.340     0.094     0.000  123192.8   896564.4
  561.000     7.282     8.035     0.336     0.093     0.000  121719.6   886415.3
  561.500     7.286     8.030     0.336     0.093     0.000  121818.2   887618.9
  562.000     7.289     8.033     0.332     0.091     0.000  120254.9   876523.3
  562.500     7.291     8.025     0.332     0.091     0.000  120297.2   877094.9
  563.000     7.292     8.026     0.329     0.090     0.000  118705.1   865615.3
  563.500     7.293     8.018     0.329     0.090     0.000  118722.0   865882.1
  564.000     7.294     8.018     0.325     0.089     0.000  117006.0   853419.9
  564.500     7.295     8.009     0.325     0.089     0.000  117021.6   853640.8
  565.000     7.295     8.009     0.324     0.089     0.000  116499.9   849871.5
  565.500     7.295     8.006     0.324     0.089     0.000  116498.7   849874.0
  566.000     7.295     8.006     0.317     0.087     0.000  113646.7   829014.8
  566.500     7.295     7.989     0.317     0.087     0.000  113674.4   829302.7
  567.000     7.295     7.989     0.314     0.086     0.000  112390.2   819930.7
  567.500     7.295     7.981     0.314     0.086     0.000  112400.2   819999.1
  568.000     7.294     7.980     0.311     0.085     0.000  110956.2   809352.8
  568.500     7.293     7.970     0.311     0.085     0.000  110940.6   809122.4
  569.000     7.291     7.968     0.308     0.084     0.000  109610.8   799198.8
  569.500     7.289     7.958     0.308     0.084     0.000  109567.5   798652.0
  570.000     7.286     7.955     0.306     0.083     0.000  108647.4   791632.6
  570.500     7.283     7.946     0.306     0.083     0.000  108585.0   790868.6
  571.000     7.280     7.943     0.304     0.083     0.000  107898.7   785534.2
  571.500     7.278     7.936     0.304     0.083     0.000  107846.0   784866.8
  572.000     7.275     7.934     0.303     0.083     0.000  107386.0   781283.3
  572.500     7.274     7.930     0.303     0.083     0.000  107379.9   781116.3
  573.000     7.274     7.930     0.303     0.083     0.000  107218.3   779937.1
  573.500     7.276     7.931     0.303     0.083     0.000  107291.1   780624.4
  574.000     7.279     7.934     0.304     0.083     0.000  107629.3   783412.4
  574.500     7.283     7.940     0.304     0.083     0.000  107796.6   785127.7
  575.000     7.290     7.947     0.304     0.083     0.000  108229.1   788967.4
  575.500     7.298     7.957     0.304     0.083     0.000  108494.1   791759.8
  576.000     7.307     7.968     0.304     0.083     0.000  108908.2   795817.0
  576.500     7.318     7.980     0.304     0.083     0.000  109253.7   799519.2
  577.000     7.330     7.993     0.304     0.083     0.000  109626.6   803543.4
  577.500     7.342     8.006     0.304     0.083     0.000  110017.0   807781.1
  578.000     7.355     8.020     0.304     0.083     0.000  110478.4   812581.6
  578.500     7.368     8.035     0.304     0.083     0.000  110865.9   816831.7
  579.000     7.380     8.048     0.304     0.083     0.000  111163.2   820368.0
  579.500     7.391     8.060     0.304     0.083     0.000  111505.5   824152.9
  580.000     7.401     8.071     0.304     0.083     0.000  111854.7   827866.0
  580.500     7.410     8.080     0.304     0.083     0.000  112118.9   830801.1
  581.000     7.417     8.088     0.305     0.083     0.000  112433.5   833947.4
  581.500     7.423     8.095     0.305     0.083     0.000  112606.8   835872.8
  582.000     7.427     8.100     0.305     0.083     0.000  112860.4   838230.7
  582.500     7.430     8.103     0.305     0.083     0.000  112946.9   839184.4
  583.000     7.431     8.105     0.305     0.083     0.000  113237.5   841512.5
  583.500     7.432     8.107     0.305     0.083     0.000  113248.4   841618.0
  584.000     7.431     8.106     0.306     0.083     0.000  113476.5   843224.7
  584.500     7.429     8.105     0.306     0.083     0.000  113424.9   842633.3
  585.000     7.426     8.103     0.306     0.083     0.000  113415.4   842262.8
  585.500     7.423     8.099     0.306     0.083     0.000  113312.8   841109.1
  586.000     7.419     8.095     0.306     0.084     0.000  113216.2   839915.7
  586.500     7.414     8.089     0.306     0.084     0.000  113065.6   838236.4
  587.000     7.408     8.083     0.306     0.084     0.000  112933.3   836608.9
  587.500     7.401     8.076     0.306     0.084     0.000  112733.9   834398.5
  588.000     7.394     8.068     0.306     0.084     0.000  112477.5   831683.3
  588.500     7.386     8.059     0.306     0.084     0.000  112231.9   828970.8
  589.000     7.378     8.050     0.306     0.083     0.000  111928.1   825753.0
  589.500     7.368     8.039     0.306     0.083     0.000  111640.8   822590.9
  590.000     7.358     8.029     0.306     0.084     0.000  111370.6   819492.9
  590.500     7.348     8.017     0.306     0.084     0.000  111048.9   815963.0
  591.000     7.337     8.006     0.306     0.083     0.000  110643.0   811775.0
  591.500     7.326     7.993     0.306     0.083     0.000  110302.1   808042.7
  592.000     7.314     7.981     0.305     0.083     0.000  109702.4   802403.3
  592.500     7.303     7.967     0.305     0.083     0.000  109361.9   798681.3
  593.000     7.292     7.954     0.304     0.083     0.000  108569.9   791684.0
  593.500     7.281     7.940     0.304     0.083     0.000  108252.0   788212.8
  594.000     7.271     7.929     0.303     0.083     0.000  107312.4   780271.8
  594.500     7.262     7.915     0.303     0.083     0.000  107040.1   777301.1
  595.000     7.253     7.906     0.301     0.082     0.000  105998.0   768832.8
  595.500     7.246     7.893     0.301     0.082     0.000  105792.6   766593.9
  596.000     7.240     7.887     0.299     0.081     0.000  104821.9   758928.8
  596.500     7.236     7.877     0.299     0.081     0.000  104695.6   757557.3
  597.000     7.233     7.874     0.298     0.081     0.000  104084.7   752807.5
  597.500     7.231     7.869     0.298     0.081     0.000  104035.4   752278.8
  598.000     7.230     7.868     0.297     0.081     0.000  103757.6   750216.8
  598.500     7.231     7.867     0.297     0.081     0.000  103773.9   750407.4
  599.000     7.233     7.869     0.297     0.081     0.000  103601.0   749324.6
  599.500     7.235     7.870     0.297     0.081     0.000  103669.4   750082.6
  600.000     7.239     7.874     0.296     0.081     0.000  103570.3   749697.4
  600.500     7.242     7.877     0.296     0.081     0.000  103676.0   750865.7
  601.000     7.247     7.882     0.296     0.080     0.000  103587.0   750672.4
  601.500     7.252     7.886     0.296     0.080     0.000  103720.0   752144.4
  602.000     7.257     7.891     0.295     0.080     0.000  103603.0   751844.8
  602.500     7.263     7.896     0.295     0.080     0.000  103759.7   753590.4
  603.000     7.269     7.903     0.294     0.080     0.000  103572.9   752886.6
  603.500     7.276     7.909     0.294     0.080     0.000  103757.2   754956.0
  604.000     7.284     7.917     0.293     0.079     0.000  103244.9   752013.5
  604.500     7.292     7.922     0.293     0.079     0.000  103468.1   754537.2
  605.000     7.302     7.932     0.291     0.079     0.000  102988.0   751999.1
  605.500     7.312     7.939     0.291     0.079     0.000  103253.3   755016.2
  606.000     7.323     7.951     0.289     0.078     0.000  102857.7   753262.4
  606.500     7.335     7.960     0.289     0.078     0.000  103159.5   756710.4
  607.000     7.348     7.973     0.288     0.078     0.000  102815.4   755451.7
  607.500     7.360     7.983     0.288     0.078     0.000  103136.1   759125.3
  608.000     7.373     7.997     0.287     0.078     0.000  102970.3   759192.6
  608.500     7.385     8.007     0.287     0.078     0.000  103277.9   762720.3
  609.000     7.396     8.019     0.286     0.077     0.000  103198.4   763291.7
  609.500     7.407     8.028     0.286     0.077     0.000  103458.5   766270.1
  610.000     7.415     8.038     0.285     0.077     0.000  103481.5   767337.7
  610.500     7.422     8.044     0.285     0.077     0.000  103668.9   769469.6
  611.000     7.428     8.050     0.285     0.077     0.000  103790.2   770940.0
  611.500     7.432     8.054     0.285     0.077     0.000  103898.8   772155.3
  612.000     7.434     8.057     0.285     0.077     0.000  104005.3   773210.8
  612.500     7.436     8.059     0.285     0.077     0.000  104048.8   773675.5
  613.000     7.436     8.059     0.286     0.077     0.000  104175.9   774664.6
  613.500     7.436     8.059     0.286     0.077     0.000  104174.5   774617.8
  614.000     7.435     8.058     0.285     0.077     0.000  103918.1   772616.3
  614.500     7.434     8.056     0.285     0.077     0.000  103892.0   772294.5
  615.000     7.432     8.054     0.284     0.077     0.000  103587.5   769853.3
  615.500     7.430     8.050     0.284     0.077     0.000  103535.5   769248.2
  616.000     7.427     8.047     0.284     0.077     0.000  103132.4   765963.1
  616.500     7.424     8.041     0.284     0.077     0.000  103041.7   764933.0
  617.000     7.419     8.036     0.283     0.077     0.000  102673.1   761736.2
  617.500     7.414     8.029     0.283     0.077     0.000  102526.3   760085.7
  618.000     7.407     8.022     0.282     0.076     0.000  102105.8   756283.3
  618.500     7.399     8.012     0.282     0.076     0.000  101896.4   753937.6
  619.000     7.390     8.002     0.282     0.076     0.000  101552.1   750478.6
  619.500     7.380     7.991     0.282     0.076     0.000  101285.4   747497.8
  620.000     7.369     7.979     0.282     0.076     0.000  101050.0   744664.0
  620.500     7.358     7.967     0.282     0.076     0.000  100742.3   741230.7
  621.000     7.346     7.954     0.283     0.077     0.000  100616.3   739091.7
  621.500     7.333     7.941     0.283     0.077     0.000  100286.9   735421.5
  622.000     7.321     7.928     0.284     0.077     0.000  100561.6   736166.4
  622.500     7.308     7.917     0.284     0.077     0.000  100217.9   732343.6
  623.000     7.294     7.903     0.286     0.077     0.000  100396.2   732338.1
  623.500     7.281     7.892     0.286     0.077     0.000  100046.2   728449.5
  624.000     7.268     7.877     0.286     0.078     0.000  100081.0   727365.2
  624.500     7.254     7.865     0.286     0.078     0.000   99723.9   723405.2
  625.000     7.240     7.850     0.287     0.078     0.000   99529.1   720615.5
  625.500     7.226     7.835     0.287     0.078     0.000   99162.1   716555.2
  626.000     7.212     7.820     0.287     0.078     0.000   98836.2   712776.5
  626.500     7.197     7.804     0.287     0.078     0.000   98457.0   708594.3
  627.000     7.182     7.788     0.287     0.078     0.000   97905.7   703164.6
  627.500     7.167     7.771     0.287     0.078     0.000   97520.6   698935.5
  628.000     7.152     7.754     0.286     0.077     0.000   96774.3   692127.8
  628.500     7.137     7.736     0.286     0.077     0.000   96395.3   687986.9
  629.000     7.122     7.720     0.285     0.077     0.000   95642.6   681209.5
  629.500     7.108     7.702     0.285     0.077     0.000   95279.6   677268.9
  630.000     7.094     7.687     0.283     0.077     0.000   94410.2   669775.2
  630.500     7.081     7.670     0.283     0.077     0.000   94072.1   666130.1
  631.000     7.068     7.656     0.282     0.076     0.000   93321.7   659611.7
  631.500     7.056     7.640     0.282     0.076     0.000   93004.3   656217.9
  632.000     7.044     7.626     0.281     0.076     0.000   92351.1   650484.1
  632.500     7.032     7.611     0.281     0.076     0.000   92041.8   647207.9
  633.000     7.020     7.598     0.281     0.076     0.000   91422.8   641754.3
  633.500     7.007     7.583     0.281     0.076     0.000   91104.2   638411.8
  634.000     6.995     7.570     0.280     0.076     0.000   90518.7   633167.8
  634.500     6.982     7.554     0.280     0.076     0.000   90172.7   629567.3
  635.000     6.968     7.539     0.280     0.076     0.000   89634.0   624563.3
  635.500     6.953     7.522     0.280     0.076     0.000   89246.2   620554.6
  636.000     6.938     7.505     0.280     0.076     0.000   88825.9   616246.0
  636.500     6.921     7.487     0.280     0.076     0.000   88387.0   611731.8
  637.000     6.903     7.468     0.280     0.076     0.000   88046.1   607817.9
  637.500     6.885     7.449     0.280     0.076     0.000   87553.9   602778.1
  638.000     6.865     7.427     0.281     0.076     0.000   87267.4   599084.4
  638.500     6.844     7.406     0.281     0.076     0.000   86728.0   593582.5
  639.000     6.823     7.383     0.282     0.076     0.000   86581.6   590722.3
  639.500     6.801     7.362     0.282     0.076     0.000   86009.8   584909.7
  640.000     6.778     7.337     0.283     0.077     0.000   85947.0   582555.5
  640.500     6.755     7.316     0.283     0.077     0.000   85371.1   576722.8
  641.000     6.733     7.292     0.285     0.077     0.000   85645.9   576689.5
  641.500     6.712     7.274     0.285     0.077     0.000   85098.2   571163.1
  642.000     6.692     7.252     0.288     0.078     0.000   85490.9   572070.7
  642.500     6.673     7.238     0.288     0.078     0.000   85010.0   567236.4
  643.000     6.656     7.219     0.291     0.079     0.000   85555.1   569426.3
  643.500     6.640     7.209     0.291     0.079     0.000   85168.5   565558.6
  644.000     6.628     7.196     0.294     0.080     0.000   85861.8   569066.1
  644.500     6.617     7.190     0.294     0.080     0.000   85579.2   566254.8
  645.000     6.608     7.181     0.297     0.081     0.000   86424.3   571102.6
  645.500     6.601     7.180     0.297     0.081     0.000   86234.0   569229.2
  646.000     6.596     7.175     0.300     0.082     0.000   87107.3   574536.2
  646.500     6.591     7.177     0.300     0.082     0.000   86983.0   573338.3
  647.000     6.588     7.173     0.302     0.082     0.000   87854.2   578804.7
  647.500     6.585     7.177     0.302     0.082     0.000   87762.7   577947.5
  648.000     6.583     7.174     0.305     0.083     0.000   88489.8   582527.7
  648.500     6.580     7.177     0.305     0.083     0.000   88404.7   581740.4
  649.000     6.578     7.174     0.306     0.084     0.000   88882.5   584667.2
  649.500     6.575     7.175     0.306     0.084     0.000   88793.8   583839.0
  650.000     6.573     7.172     0.307     0.084     0.000   88943.5   584583.8
  650.500     6.570     7.171     0.307     0.084     0.000   88861.1   583802.3
  651.000     6.567     7.168     0.307     0.084     0.000   88821.8   583332.0
  651.500     6.566     7.166     0.307     0.084     0.000   88767.0   582803.9
  652.000     6.564     7.165     0.306     0.084     0.000   88437.7   580538.3
  652.500     6.564     7.163     0.306     0.084     0.000   88436.8   580527.5
  653.000     6.565     7.164     0.305     0.083     0.000   88052.9   578095.3
  653.500     6.568     7.164     0.305     0.083     0.000   88119.6   578745.6
  654.000     6.571     7.168     0.304     0.083     0.000   87895.9   577588.4
  654.500     6.576     7.171     0.304     0.083     0.000   88026.6   578873.1
  655.000     6.582     7.177     0.303     0.083     0.000   87856.5   578263.9
  655.500     6.589     7.182     0.303     0.083     0.000   88038.6   580064.3
  656.000     6.596     7.191     0.303     0.082     0.000   88050.2   580801.9
  656.500     6.604     7.198     0.303     0.082     0.000   88267.4   582955.9
  657.000     6.613     7.208     0.302     0.082     0.000   88389.6   584526.5
  657.500     6.622     7.217     0.302     0.082     0.000   88632.9   586944.3
  658.000     6.632     7.227     0.302     0.082     0.000   88912.3   589643.0
  658.500     6.642     7.238     0.302     0.082     0.000   89180.2   592309.5
  659.000     6.652     7.250     0.303     0.082     0.000   89517.5   595485.5
  659.500     6.663     7.262     0.303     0.082     0.000   89813.0   598431.6
  660.000     6.674     7.274     0.303     0.083     0.000   90268.9   602498.7
  660.500     6.686     7.288     0.303     0.083     0.000   90591.6   605719.4
  661.000     6.698     7.301     0.303     0.083     0.000   91069.0   610021.4
  661.500     6.711     7.316     0.303     0.083     0.000   91416.1   613486.1
  662.000     6.724     7.330     0.304     0.083     0.000   91846.0   617544.4
  662.500     6.737     7.345     0.304     0.083     0.000   92214.6   621223.2
  663.000     6.750     7.359     0.304     0.083     0.000   92656.8   625432.0
  663.500     6.763     7.374     0.304     0.083     0.000   93044.2   629301.1
  664.000     6.777     7.389     0.304     0.083     0.000   93519.0   633796.0
  664.500     6.791     7.405     0.304     0.083     0.000   93921.3   637826.5
  665.000     6.805     7.420     0.304     0.083     0.000   94352.9   642082.2
  665.500     6.819     7.436     0.304     0.083     0.000   94760.9   646190.7
  666.000     6.833     7.451     0.304     0.083     0.000   95035.3   649384.3
  666.500     6.847     7.465     0.304     0.083     0.000   95429.8   653379.3
  667.000     6.860     7.479     0.303     0.083     0.000   95615.3   655887.5
  667.500     6.872     7.491     0.303     0.083     0.000   95964.5   659441.9
  668.000     6.882     7.502     0.303     0.083     0.000   96180.4   661960.3
  668.500     6.892     7.512     0.303     0.083     0.000   96447.2   664683.1
  669.000     6.899     7.520     0.303     0.082     0.000   96501.8   665767.0
  669.500     6.904     7.525     0.303     0.082     0.000   96660.1   667380.2
  670.000     6.908     7.528     0.302     0.082     0.000   96608.1   667338.1
  670.500     6.909     7.529     0.302     0.082     0.000   96649.8   667750.2
  671.000     6.908     7.528     0.302     0.082     0.000   96544.7   666957.9
  671.500     6.906     7.525     0.302     0.082     0.000   96482.4   666297.0
  672.000     6.902     7.521     0.302     0.082     0.000   96267.7   664442.8
  672.500     6.897     7.515     0.302     0.082     0.000   96132.3   663033.0
  673.000     6.891     7.508     0.302     0.082     0.000   95934.5   661119.7
  673.500     6.885     7.501     0.302     0.082     0.000   95763.7   659358.2
  674.000     6.879     7.495     0.302     0.082     0.000   95625.4   657820.4
  674.500     6.873     7.489     0.302     0.082     0.000   95457.2   656107.1
  675.000     6.868     7.483     0.302     0.082     0.000   95422.7   655376.6
  675.500     6.864     7.479     0.302     0.082     0.000   95289.2   654049.5
  676.000     6.861     7.476     0.302     0.082     0.000   95194.6   653100.3
  676.500     6.859     7.474     0.302     0.082     0.000   95122.8   652433.1
  677.000     6.858     7.473     0.302     0.082     0.000   95163.7   652674.7
  677.500     6.859     7.475     0.302     0.082     0.000   95165.2   652779.3
  678.000     6.862     7.477     0.303     0.082     0.000   95393.0   654571.6
  678.500     6.865     7.483     0.303     0.082     0.000   95464.7   655405.9
  679.000     6.870     7.488     0.303     0.083     0.000   95837.5   658416.2
  679.500     6.876     7.495     0.303     0.083     0.000   95960.5   659780.1
  680.000     6.881     7.502     0.304     0.083     0.000   96426.6   663558.8
  680.500     6.887     7.510     0.304     0.083     0.000   96567.8   665106.3
  681.000     6.893     7.517     0.306     0.083     0.000   97324.9   670885.3
  681.500     6.898     7.526     0.306     0.083     0.000   97440.5   672161.1
  682.000     6.902     7.531     0.308     0.084     0.000   98188.7   677727.2
  682.500     6.905     7.538     0.308     0.084     0.000   98245.6   678386.7
  683.000     6.907     7.540     0.309     0.085     0.000   98994.7   683716.8
  683.500     6.907     7.544     0.309     0.085     0.000   98977.4   683597.2
  684.000     6.906     7.543     0.312     0.085     0.000  100058.1   690955.6
  684.500     6.903     7.547     0.312     0.085     0.000   99967.1   690063.6
  685.000     6.900     7.544     0.315     0.086     0.000  100945.3   696488.4
  685.500     6.895     7.546     0.315     0.086     0.000  100808.4   695117.5
  686.000     6.891     7.542     0.317     0.087     0.000  101218.7   697522.6
  686.500     6.887     7.541     0.317     0.087     0.000  101084.9   696181.6
  687.000     6.884     7.537     0.318     0.087     0.000  101475.9   698530.5
  687.500     6.881     7.537     0.318     0.087     0.000  101386.6   697650.8
  688.000     6.880     7.536     0.319     0.087     0.000  101648.4   699333.9
  688.500     6.880     7.538     0.319     0.087     0.000  101647.3   699369.4
  689.000     6.883     7.541     0.319     0.087     0.000  101867.0   701136.0
  689.500     6.888     7.547     0.319     0.087     0.000  101992.4   702483.1
  690.000     6.895     7.555     0.320     0.088     0.000  102499.4   706723.3
  690.500     6.905     7.568     0.320     0.088     0.000  102773.0   709613.1
  691.000     6.917     7.582     0.320     0.088     0.000  103268.2   714317.4
  691.500     6.932     7.599     0.320     0.088     0.000  103698.2   718841.0
  692.000     6.949     7.618     0.321     0.088     0.000  104295.9   724787.4
  692.500     6.969     7.640     0.321     0.088     0.000  104862.3   730739.1
  693.000     6.989     7.662     0.320     0.088     0.000  105440.1   736954.6
  693.500     7.011     7.686     0.320     0.088     0.000  106097.6   743861.5
  694.000     7.033     7.710     0.320     0.088     0.000  106621.5   749902.1
  694.500     7.055     7.734     0.320     0.088     0.000  107307.7   757102.5
  695.000     7.077     7.757     0.319     0.088     0.000  107721.1   762325.2
  695.500     7.097     7.778     0.319     0.088     0.000  108373.2   769148.3
  696.000     7.116     7.798     0.318     0.087     0.000  108530.6   772308.3
  696.500     7.133     7.815     0.318     0.087     0.000  109103.1   778270.4
  697.000     7.149     7.831     0.317     0.087     0.000  109063.7   779666.1
  697.500     7.163     7.843     0.317     0.087     0.000  109535.9   784551.2
  698.000     7.174     7.856     0.315     0.086     0.000  109241.3   783743.4
  698.500     7.185     7.863     0.315     0.086     0.000  109618.5   787619.8
  699.000     7.194     7.873     0.313     0.086     0.000  109173.7   785427.0
  699.500     7.203     7.878     0.313     0.086     0.000  109476.4   788526.8
  700.000     7.210     7.886     0.311     0.085     0.000  108868.4   784952.6
  700.500     7.217     7.888     0.311     0.085     0.000  109122.8   787563.9
  701.000     7.224     7.895     0.309     0.084     0.000  108491.9   783712.8
  701.500     7.230     7.897     0.309     0.084     0.000  108717.7   786049.7
  702.000     7.236     7.904     0.307     0.084     0.000  108053.9   781905.2
  702.500     7.242     7.905     0.307     0.084     0.000  108263.6   784096.5
  703.000     7.248     7.912     0.305     0.083     0.000  107666.7   780406.5
  703.500     7.254     7.913     0.305     0.083     0.000  107864.8   782493.6
  704.000     7.260     7.920     0.303     0.082     0.000  106884.3   775992.4
  704.500     7.266     7.919     0.303     0.082     0.000  107080.0   778070.5
  705.000     7.272     7.926     0.300     0.082     0.000  106145.7   771900.9
  705.500     7.278     7.926     0.300     0.082     0.000  106340.2   773979.2
  706.000     7.284     7.932     0.297     0.081     0.000  105462.3   768218.5
  706.500     7.291     7.932     0.297     0.081     0.000  105656.8   770307.4
  707.000     7.297     7.939     0.296     0.080     0.000  105127.3   767090.1
  707.500     7.303     7.942     0.296     0.080     0.000  105317.2   769141.0
  708.000     7.309     7.948     0.294     0.080     0.000  104877.8   766569.6
  708.500     7.315     7.951     0.294     0.080     0.000  105061.3   768563.7
  709.000     7.321     7.958     0.293     0.080     0.000  104759.3   766976.7
  709.500     7.327     7.961     0.293     0.080     0.000  104931.4   768859.1
  710.000     7.333     7.967     0.292     0.079     0.000  104534.6   766534.6
  710.500     7.338     7.970     0.292     0.079     0.000  104692.3   768269.1
  711.000     7.343     7.975     0.291     0.079     0.000  104387.6   766560.8
  711.500     7.348     7.978     0.291     0.079     0.000  104524.0   768066.9
  712.000     7.352     7.983     0.284     0.077     0.000  101769.1   748257.4
  712.500     7.358     7.971     0.284     0.077     0.000  101918.2   749904.2
  713.000     7.363     7.976     0.283     0.077     0.000  101622.9   748204.1
  713.500     7.367     7.978     0.283     0.077     0.000  101737.4   749466.6
  714.000     7.370     7.982     0.281     0.076     0.000  100961.6   744087.6
  714.500     7.373     7.980     0.281     0.076     0.000  101049.2   745046.7
  715.000     7.375     7.982     0.279     0.075     0.000  100257.7   739450.0
  715.500     7.378     7.980     0.279     0.075     0.000  100324.2   740169.9
  716.000     7.380     7.982     0.277     0.075     0.000   99390.9   733455.7
  716.500     7.381     7.978     0.277     0.075     0.000   99448.0   734063.1
  717.000     7.383     7.979     0.275     0.074     0.000   98701.6   728702.2
  717.500     7.385     7.976     0.275     0.074     0.000   98754.7   729262.5
  718.000     7.386     7.978     0.272     0.074     0.000   97839.0   722644.8
  718.500     7.388     7.974     0.272     0.074     0.000   97896.2   723251.7
  719.000     7.390     7.976     0.270     0.073     0.000   96842.5   715632.6
  719.500     7.392     7.972     0.270     0.073     0.000   96906.3   716319.1
  720.000     7.394     7.974     0.267     0.072     0.000   95726.2   707789.9
  720.500     7.396     7.969     0.267     0.072     0.000   95796.5   708558.7
  721.000     7.399     7.972     0.264     0.071     0.000   94532.8   699440.1
  721.500     7.402     7.968     0.264     0.071     0.000   94612.9   700328.5
  722.000     7.405     7.971     0.260     0.070     0.000   93336.5   691173.4
  722.500     7.409     7.967     0.260     0.070     0.000   93440.7   692339.7
  723.000     7.414     7.972     0.258     0.069     0.000   92431.4   685303.1
  723.500     7.421     7.973     0.258     0.069     0.000   92587.8   687060.0
  724.000     7.429     7.981     0.256     0.069     0.000   92110.2   684246.4
  724.500     7.439     7.988     0.256     0.069     0.000   92360.3   687063.3
  725.000     7.452     8.002     0.255     0.068     0.000   92136.5   686595.3
  725.500     7.468     8.017     0.255     0.068     0.000   92531.8   691063.0
  726.000     7.488     8.038     0.254     0.068     0.000   92550.3   693049.8
  726.500     7.512     8.061     0.254     0.068     0.000   93128.0   699610.7
  727.000     7.540     8.091     0.254     0.068     0.000   94014.3   708876.8
  727.500     7.571     8.126     0.254     0.068     0.000   94772.5   717543.4
  728.000     7.605     8.162     0.255     0.068     0.000   95741.9   728153.7
  728.500     7.642     8.202     0.255     0.068     0.000   96643.8   738538.3
  729.000     7.680     8.243     0.256     0.069     0.000   98034.3   752896.5
  729.500     7.718     8.287     0.256     0.069     0.000   99005.1   764166.6
  730.000     7.757     8.328     0.256     0.069     0.000  100335.6   778290.0
  730.500     7.794     8.370     0.256     0.069     0.000  101291.5   789481.8
  731.000     7.830     8.409     0.257     0.069     0.000  102420.9   801941.0
  731.500     7.863     8.446     0.257     0.069     0.000  103290.1   812198.0
  732.000     7.894     8.479     0.257     0.069     0.000  104216.5   822690.6
  732.500     7.922     8.509     0.257     0.069     0.000  104946.6   831357.9
  733.000     7.946     8.535     0.257     0.069     0.000  105663.2   839600.0
  733.500     7.967     8.558     0.257     0.069     0.000  106215.0   846166.4
  734.000     7.983     8.576     0.257     0.069     0.000  106784.2   852467.3
  734.500     7.995     8.589     0.257     0.069     0.000  107124.7   856496.8
  735.000     8.003     8.598     0.258     0.069     0.000  107366.0   859267.4
  735.500     8.007     8.601     0.258     0.069     0.000  107475.2   860500.8
  736.000     8.005     8.600     0.258     0.069     0.000  107612.3   861479.1
  736.500     8.000     8.595     0.258     0.069     0.000  107486.3   859879.7
  737.000     7.990     8.585     0.258     0.069     0.000  107545.5   859326.1
  737.500     7.977     8.572     0.258     0.069     0.000  107204.1   855158.7
  738.000     7.960     8.554     0.259     0.070     0.000  107235.3   853616.9
  738.500     7.940     8.535     0.259     0.070     0.000  106716.8   847377.0
  739.000     7.918     8.512     0.260     0.070     0.000  106646.1   844457.9
  739.500     7.894     8.488     0.260     0.070     0.000  106001.1   836779.2
  740.000     7.868     8.461     0.261     0.070     0.000  105685.1   831577.2
  740.500     7.842     8.434     0.261     0.070     0.000  104967.5   823118.7
  741.000     7.814     8.405     0.262     0.071     0.000  104740.7   818474.3
  741.500     7.786     8.378     0.262     0.071     0.000  103988.8   809693.9
  742.000     7.758     8.347     0.264     0.071     0.000  103771.1   805101.8
  742.500     7.730     8.320     0.264     0.071     0.000  103015.1   796350.5
  743.000     7.703     8.291     0.265     0.071     0.000  102909.8   792696.6
  743.500     7.675     8.265     0.265     0.071     0.000  102169.5   784192.2
  744.000     7.649     8.236     0.267     0.072     0.000  102238.6   781991.1
  744.500     7.622     8.212     0.267     0.072     0.000  101526.6   773865.6
  745.000     7.597     8.185     0.269     0.072     0.000  101654.6   772250.0
  745.500     7.572     8.162     0.269     0.072     0.000  100981.2   764607.8
  746.000     7.548     8.137     0.270     0.073     0.000  101193.7   763787.1
  746.500     7.524     8.116     0.270     0.073     0.000  100561.5   756650.4
  747.000     7.502     8.092     0.272     0.073     0.000  100737.6   755706.8
  747.500     7.480     8.073     0.272     0.073     0.000  100143.6   749042.5
  748.000     7.458     8.050     0.274     0.074     0.000  100178.1   747176.9
  748.500     7.438     8.031     0.274     0.074     0.000   99614.6   740899.7
  749.000     7.417     8.009     0.275     0.074     0.000   99538.4   738324.4
  749.500     7.398     7.990     0.275     0.074     0.000   98993.9   732312.2
  750.000     7.378     7.969     0.275     0.074     0.000   98722.4   728380.9
  750.500     7.359     7.950     0.275     0.074     0.000   98192.5   722584.2
  751.000     7.340     7.930     0.276     0.075     0.000   97967.6   719091.9
  751.500     7.322     7.912     0.276     0.075     0.000   97453.4   713524.8
  752.000     7.304     7.893     0.277     0.075     0.000   97196.9   709927.9
  752.500     7.287     7.876     0.277     0.075     0.000   96716.2   704780.8
  753.000     7.271     7.859     0.277     0.075     0.000   96541.3   701988.4
  753.500     7.257     7.845     0.277     0.075     0.000   96122.6   697558.2
  754.000     7.244     7.831     0.278     0.075     0.000   96098.5   696170.6
  754.500     7.234     7.822     0.278     0.075     0.000   95774.9   692797.3
  755.000     7.225     7.813     0.279     0.076     0.000   95923.1   693065.0
  755.500     7.219     7.809     0.279     0.076     0.000   95719.9   691008.0
  756.000     7.215     7.805     0.280     0.076     0.000   95862.3   691691.8
  756.500     7.214     7.805     0.280     0.076     0.000   95784.5   691002.9
  757.000     7.215     7.806     0.281     0.076     0.000   95998.5   692628.8
  757.500     7.217     7.810     0.281     0.076     0.000   96017.9   693007.9
  758.000     7.221     7.814     0.281     0.076     0.000   96203.2   694712.1
  758.500     7.226     7.820     0.281     0.076     0.000   96270.5   695634.3
  759.000     7.231     7.825     0.281     0.076     0.000   96375.3   696857.9
  759.500     7.235     7.831     0.281     0.076     0.000   96446.0   697830.0
  760.000     7.240     7.836     0.281     0.076     0.000   96655.3   699782.4
  760.500     7.244     7.841     0.281     0.076     0.000   96715.9   700629.7
  761.000     7.249     7.846     0.287     0.078     0.000   99066.1   718082.0
  761.500     7.252     7.864     0.287     0.078     0.000   99122.5   718833.6
  762.000     7.257     7.869     0.287     0.078     0.000   99229.3   720099.0
  762.500     7.264     7.877     0.287     0.078     0.000   99411.2   722144.4
  763.000     7.275     7.888     0.287     0.078     0.000   99933.1   726982.1
  763.500     7.289     7.905     0.287     0.078     0.000  100324.2   731244.4
  764.000     7.307     7.925     0.288     0.078     0.000  101115.4   738864.8
  764.500     7.329     7.951     0.288     0.078     0.000  101753.8   745803.9
  765.000     7.356     7.979     0.288     0.078     0.000  102626.7   754890.5
  765.500     7.385     8.012     0.288     0.078     0.000  103474.6   764151.7
  766.000     7.416     8.046     0.288     0.078     0.000  104402.3   774273.9
  766.500     7.449     8.081     0.288     0.078     0.000  105351.8   784713.7
  767.000     7.480     8.115     0.288     0.078     0.000  106136.4   793950.2
  767.500     7.511     8.148     0.288     0.078     0.000  107052.0   804077.4
  768.000     7.539     8.178     0.288     0.078     0.000  107705.4   812020.9
  768.500     7.564     8.204     0.288     0.078     0.000  108472.4   820529.6
  769.000     7.586     8.228     0.287     0.078     0.000  108906.2   826151.6
  769.500     7.604     8.246     0.287     0.078     0.000  109469.1   832376.4
  770.000     7.618     8.261     0.287     0.078     0.000  109825.1   836646.4
  770.500     7.629     8.272     0.287     0.078     0.000  110196.8   840701.9
  771.000     7.638     8.282     0.287     0.078     0.000  110474.4   843764.9
  771.500     7.644     8.289     0.287     0.078     0.000  110723.0   846418.1
  772.000     7.650     8.295     0.288     0.078     0.000  111400.0   852248.2
  772.500     7.656     8.304     0.288     0.078     0.000  111606.9   854438.9
  773.000     7.662     8.310     0.289     0.078     0.000  112331.2   860655.3
  773.500     7.668     8.321     0.289     0.078     0.000  112567.6   863216.9
  774.000     7.676     8.329     0.290     0.079     0.000  113364.3   870227.8
  774.500     7.685     8.342     0.290     0.079     0.000  113660.2   873516.2
  775.000     7.695     8.353     0.290     0.079     0.000  113873.6   876310.7
  775.500     7.707     8.364     0.290     0.079     0.000  114223.9   880271.2
  776.000     7.718     8.377     0.292     0.079     0.000  115738.8   893276.3
  776.500     7.729     8.395     0.292     0.079     0.000  116076.6   897127.2
  777.000     7.739     8.406     0.293     0.080     0.000  116766.0   903642.6
  777.500     7.748     8.418     0.293     0.080     0.000  117045.9   906849.0
  778.000     7.755     8.426     0.294     0.080     0.000  117799.8   913556.8
  778.500     7.760     8.434     0.294     0.080     0.000  117961.0   915402.8
  779.000     7.763     8.437     0.294     0.080     0.000  117834.0   914732.1
  779.500     7.763     8.436     0.294     0.080     0.000  117838.5   914771.2
  780.000     7.760     8.433     0.294     0.080     0.000  117728.1   913554.8
  780.500     7.754     8.426     0.294     0.080     0.000  117533.7   911298.1
  781.000     7.744     8.415     0.295     0.080     0.000  117634.3   910921.3
  781.500     7.730     8.403     0.295     0.080     0.000  117218.5   906116.4
  782.000     7.713     8.384     0.296     0.080     0.000  117251.8   904409.3
  782.500     7.693     8.366     0.296     0.080     0.000  116635.5   897327.5
  783.000     7.671     8.342     0.297     0.081     0.000  116668.3   894984.2
  783.500     7.647     8.319     0.297     0.081     0.000  115914.5   886387.5
  784.000     7.622     8.292     0.299     0.081     0.000  116027.1   884342.0
  784.500     7.596     8.270     0.299     0.081     0.000  115230.8   875335.0
  785.000     7.572     8.243     0.301     0.082     0.000  115496.6   874523.3
  785.500     7.548     8.223     0.301     0.082     0.000  114761.2   866271.2
  786.000     7.528     8.201     0.304     0.083     0.000  115114.8   866534.8
  786.500     7.509     8.187     0.304     0.083     0.000  114529.7   860013.7
  787.000     7.494     8.170     0.306     0.083     0.000  114969.0   861585.0
  787.500     7.482     8.163     0.306     0.083     0.000  114588.7   857370.5
  788.000     7.474     8.154     0.307     0.084     0.000  115080.3   860111.8
  788.500     7.469     8.153     0.307     0.084     0.000  114911.5   858275.6
  789.000     7.467     8.151     0.309     0.084     0.000  115404.8   861756.4
  789.500     7.468     8.155     0.309     0.084     0.000  115397.1   861756.5
  790.000     7.470     8.157     0.309     0.084     0.000  115547.5   863139.4
  790.500     7.473     8.161     0.309     0.084     0.000  115598.2   863846.9
  791.000     7.475     8.163     0.309     0.084     0.000  115663.6   864604.5
  791.500     7.476     8.164     0.309     0.084     0.000  115635.6   864467.4
  792.000     7.474     8.162     0.309     0.084     0.000  115455.8   862887.8
  792.500     7.468     8.156     0.309     0.084     0.000  115247.9   860721.5
  793.000     7.460     8.146     0.309     0.084     0.000  114934.2   857358.8
  793.500     7.447     8.133     0.309     0.084     0.000  114529.2   852936.2
  794.000     7.432     8.116     0.309     0.084     0.000  114085.1   847915.4
  794.500     7.415     8.098     0.309     0.084     0.000  113555.4   842049.9
  795.000     7.397     8.079     0.309     0.084     0.000  113184.6   837267.2
  795.500     7.379     8.060     0.309     0.084     0.000  112638.2   831187.7
  796.000     7.362     8.041     0.309     0.084     0.000  112201.7   826026.4
  796.500     7.346     8.024     0.309     0.084     0.000  111732.8   820796.8
  797.000     7.332     8.009     0.310     0.085     0.000  111493.1   817468.0
  797.500     7.320     7.997     0.310     0.085     0.000  111145.3   813574.8
  798.000     7.310     7.986     0.310     0.085     0.000  111081.8   812010.2
  798.500     7.302     7.978     0.310     0.085     0.000  110862.9   809538.4
  799.000     7.296     7.972     0.311     0.085     0.000  110940.4   809468.8
  799.500     7.293     7.969     0.311     0.085     0.000  110843.4   808340.3
  800.000     7.291     7.967     0.311     0.085     0.000  111037.6   809558.6
  800.500     7.291     7.969     0.311     0.085     0.000  111053.3   809674.1
  801.000     7.293     7.971     0.312     0.085     0.000  111217.8   811076.6
  801.500     7.296     7.975     0.312     0.085     0.000  111335.3   812319.4
  802.000     7.301     7.981     0.312     0.085     0.000  111454.0   813744.9
  802.500     7.308     7.988     0.312     0.085     0.000  111659.0   815960.3
  803.000     7.315     7.996     0.311     0.085     0.000  111675.4   816929.1
  803.500     7.324     8.004     0.311     0.085     0.000  111946.6   819884.4
  804.000     7.333     8.014     0.310     0.085     0.000  111821.7   820013.1
  804.500     7.343     8.023     0.310     0.085     0.000  112129.4   823385.0
  805.000     7.353     8.033     0.309     0.084     0.000  112021.5   823704.5
  805.500     7.363     8.042     0.309     0.084     0.000  112321.4   827007.2
  806.000     7.372     8.051     0.308     0.084     0.000  111962.8   825359.1
  806.500     7.380     8.056     0.308     0.084     0.000  112200.5   827989.9
  807.000     7.385     8.062     0.306     0.083     0.000  111689.4   824870.5
  807.500     7.389     8.062     0.306     0.083     0.000  111798.1   826089.7
  808.000     7.390     8.063     0.305     0.083     0.000  111254.1   822141.7
  808.500     7.387     8.057     0.305     0.083     0.000  111171.3   821252.5
  809.000     7.381     8.050     0.304     0.083     0.000  110502.2   815615.7
  809.500     7.371     8.036     0.304     0.083     0.000  110196.1   812269.0
  810.000     7.357     8.022     0.303     0.083     0.000  109377.9   804741.6
  810.500     7.341     8.001     0.303     0.083     0.000  108863.3   799112.5
  811.000     7.321     7.979     0.294     0.080     0.000  104700.0   766462.2
  811.500     7.300     7.935     0.294     0.080     0.000  104112.9   760069.4
  812.000     7.278     7.911     0.294     0.080     0.000  103186.6   751038.7
  812.500     7.256     7.885     0.294     0.080     0.000  102525.9   743883.7
  813.000     7.232     7.860     0.292     0.079     0.000  101279.7   732493.8
  813.500     7.210     7.832     0.292     0.079     0.000  100639.7   725618.8
  814.000     7.189     7.809     0.291     0.079     0.000   99430.3   714797.3
  814.500     7.170     7.785     0.291     0.079     0.000   98886.4   709014.2
  815.000     7.153     7.767     0.289     0.078     0.000   97785.0   699489.8
  815.500     7.140     7.748     0.289     0.078     0.000   97385.9   695310.0
  816.000     7.129     7.736     0.288     0.078     0.000   96336.6   686778.8
  816.500     7.121     7.724     0.288     0.078     0.000   96101.4   684384.3
  817.000     7.117     7.718     0.286     0.078     0.000   95338.0   678494.7
  817.500     7.115     7.713     0.286     0.078     0.000   95251.2   677697.4
  818.000     7.115     7.713     0.284     0.077     0.000   94560.0   672802.6
  818.500     7.117     7.711     0.284     0.077     0.000   94589.1   673236.3
  819.000     7.121     7.715     0.282     0.076     0.000   93897.8   668662.0
  819.500     7.126     7.716     0.282     0.076     0.000   94002.7   669882.7
  820.000     7.132     7.722     0.280     0.076     0.000   93335.9   665646.2
  820.500     7.138     7.724     0.280     0.076     0.000   93480.9   667261.6
  821.000     7.144     7.730     0.279     0.075     0.000   93012.7   664493.4
  821.500     7.151     7.733     0.279     0.075     0.000   93174.8   666248.8
  822.000     7.157     7.740     0.277     0.075     0.000   92745.9   663760.2
  822.500     7.163     7.744     0.277     0.075     0.000   92921.9   665624.9
  823.000     7.170     7.751     0.276     0.075     0.000   92680.6   664499.2
  823.500     7.177     7.755     0.276     0.075     0.000   92877.3   666552.6
  824.000     7.184     7.763     0.276     0.074     0.000   92843.2   666976.4
  824.500     7.192     7.770     0.276     0.074     0.000   93069.5   669324.6
  825.000     7.200     7.779     0.275     0.074     0.000   93248.6   671382.3
  825.500     7.209     7.788     0.275     0.074     0.000   93507.9   674073.3
  826.000     7.218     7.798     0.276     0.075     0.000   93962.9   678229.8
  826.500     7.228     7.810     0.276     0.075     0.000   94250.1   681216.7
  827.000     7.238     7.821     0.277     0.075     0.000   94907.2   686924.8
  827.500     7.248     7.834     0.277     0.075     0.000   95213.5   690115.7
  828.000     7.259     7.845     0.278     0.075     0.000   96025.5   697009.7
  828.500     7.269     7.860     0.278     0.075     0.000   96342.0   700311.3
  829.000     7.280     7.871     0.279     0.076     0.000   97229.5   707794.0
  829.500     7.290     7.886     0.279     0.076     0.000   97551.2   711153.8
  830.000     7.301     7.897     0.281     0.076     0.000   98548.7   719472.7
  830.500     7.311     7.913     0.281     0.076     0.000   98873.1   722870.8
  831.000     7.322     7.924     0.283     0.077     0.000   99915.7   731557.3
  831.500     7.332     7.940     0.283     0.077     0.000  100243.7   735011.3
  832.000     7.343     7.952     0.284     0.077     0.000  101275.3   743671.1
  832.500     7.354     7.968     0.284     0.077     0.000  101609.2   747215.2
  833.000     7.365     7.980     0.286     0.077     0.000  102569.7   755423.2
  833.500     7.376     7.995     0.286     0.077     0.000  102913.1   759107.5
  834.000     7.388     8.008     0.287     0.078     0.000  103849.8   767235.4
  834.500     7.400     8.025     0.287     0.078     0.000  104208.9   771133.4
  835.000     7.413     8.038     0.288     0.078     0.000  104890.0   777497.4
  835.500     7.426     8.055     0.288     0.078     0.000  105277.7   781760.3
  836.000     7.440     8.070     0.290     0.079     0.000  106568.5   792839.6
  836.500     7.454     8.091     0.290     0.079     0.000  106986.4   797485.8
  837.000     7.469     8.107     0.292     0.079     0.000  108142.2   807756.5
  837.500     7.485     8.129     0.292     0.079     0.000  108599.5   812887.0
  838.000     7.502     8.147     0.293     0.080     0.000  109758.4   823394.3
  838.500     7.519     8.169     0.293     0.080     0.000  110254.2   828998.9
  839.000     7.537     8.189     0.295     0.080     0.000  111770.1   842383.7
  839.500     7.554     8.214     0.295     0.080     0.000  112285.9   848250.4
  840.000     7.572     8.233     0.297     0.081     0.000  113678.3   860798.0
  840.500     7.589     8.257     0.297     0.081     0.000  114185.0   866594.3
  841.000     7.606     8.275     0.298     0.081     0.000  115147.3   875811.6
  841.500     7.621     8.294     0.298     0.081     0.000  115601.5   881036.2
  842.000     7.635     8.309     0.299     0.081     0.000  116334.7   888228.5
  842.500     7.647     8.324     0.299     0.081     0.000  116677.7   892195.8
  843.000     7.656     8.334     0.300     0.082     0.000  117229.6   897477.5
  843.500     7.662     8.342     0.300     0.082     0.000  117403.5   899511.0
  844.000     7.664     8.345     0.300     0.082     0.000  117774.2   902676.1
  844.500     7.664     8.346     0.300     0.082     0.000  117739.2   902308.4
  845.000     7.659     8.341     0.300     0.082     0.000  117699.7   901494.6
  845.500     7.651     8.333     0.300     0.082     0.000  117446.2   898625.3
  846.000     7.640     8.321     0.301     0.082     0.000  117346.4   896537.9
  846.500     7.625     8.306     0.301     0.082     0.000  116880.7   891265.9
  847.000     7.608     8.287     0.302     0.082     0.000  116967.9   889864.7
  847.500     7.587     8.268     0.302     0.082     0.000  116305.3   882404.5
  848.000     7.564     8.243     0.304     0.083     0.000  116435.4   880686.6
  848.500     7.538     8.220     0.304     0.083     0.000  115604.6   871410.2
  849.000     7.510     8.189     0.307     0.084     0.000  115846.3   870032.3
  849.500     7.481     8.164     0.307     0.084     0.000  114885.7   859409.5
  850.000     7.450     8.130     0.310     0.085     0.000  115451.3   860114.5
  850.500     7.418     8.105     0.310     0.085     0.000  114408.4   848694.2
  851.000     7.386     8.070     0.314     0.086     0.000  115143.6   850491.4
  851.500     7.354     8.046     0.314     0.086     0.000  114085.6   839006.0
  852.000     7.323     8.012     0.319     0.087     0.000  115046.3   842515.8
  852.500     7.293     7.991     0.319     0.087     0.000  114044.3   831713.7
  853.000     7.265     7.960     0.324     0.089     0.000  115289.9   837559.2
  853.500     7.238     7.944     0.324     0.089     0.000  114406.2   828075.6
  854.000     7.214     7.918     0.329     0.090     0.000  115675.8   834520.8
  854.500     7.193     7.906     0.329     0.090     0.000  114962.1   826876.5
  855.000     7.174     7.886     0.334     0.092     0.000  116542.9   836126.6
  855.500     7.158     7.882     0.334     0.092     0.000  116021.3   830534.6
  856.000     7.146     7.869     0.339     0.093     0.000  117779.3   841675.4
  856.500     7.136     7.871     0.339     0.093     0.000  117456.4   838193.6
  857.000     7.130     7.864     0.344     0.095     0.000  119444.0   851610.5
  857.500     7.125     7.873     0.344     0.095     0.000  119312.6   850149.3
  858.000     7.124     7.872     0.349     0.096     0.000  121370.0   864678.2
  858.500     7.125     7.886     0.349     0.096     0.000  121420.2   865124.7
  859.000     7.129     7.890     0.353     0.098     0.000  123427.8   879882.3
  859.500     7.134     7.907     0.353     0.098     0.000  123643.5   882059.5
  860.000     7.141     7.916     0.356     0.099     0.000  125364.6   895287.0
  860.500     7.150     7.934     0.356     0.099     0.000  125719.8   898917.8
  861.000     7.161     7.946     0.359     0.100     0.000  127223.9   910994.4
  861.500     7.172     7.965     0.359     0.100     0.000  127677.5   915648.2
  862.000     7.184     7.978     0.360     0.100     0.000  128925.1   926134.5
  862.500     7.196     7.996     0.360     0.100     0.000  129428.5   931307.8
  863.000     7.208     8.009     0.361     0.100     0.000  130125.9   937917.2
  863.500     7.220     8.024     0.361     0.100     0.000  130632.2   943131.0
  864.000     7.231     8.037     0.361     0.100     0.000  131081.6   947888.4
  864.500     7.242     8.049     0.361     0.100     0.000  131542.1   952649.1
  865.000     7.252     8.060     0.359     0.100     0.000  131461.0   953377.0
  865.500     7.262     8.067     0.359     0.100     0.000  131849.8   957430.2
  866.000     7.270     8.076     0.358     0.099     0.000  131578.6   956560.0
  866.500     7.278     8.081     0.358     0.099     0.000  131891.8   959866.2
  867.000     7.285     8.089     0.357     0.099     0.000  131412.2   957300.7
  867.500     7.292     8.092     0.357     0.099     0.000  131679.9   960169.2
  868.000     7.298     8.100     0.355     0.098     0.000  131181.9   957420.7
  868.500     7.306     8.103     0.355     0.098     0.000  131453.8   960360.0
  869.000     7.313     8.111     0.353     0.098     0.000  131001.7   958053.6
  869.500     7.322     8.117     0.353     0.098     0.000  131321.2   961517.4
  870.000     7.331     8.127     0.352     0.097     0.000  130895.2   959600.4
  870.500     7.341     8.133     0.352     0.097     0.000  131274.2   963716.8
  871.000     7.352     8.145     0.350     0.097     0.000  130846.8   961961.0
  871.500     7.363     8.153     0.350     0.097     0.000  131262.2   966485.9
  872.000     7.374     8.165     0.348     0.096     0.000  130804.9   964567.8
  872.500     7.385     8.172     0.348     0.096     0.000  131219.5   969100.4
  873.000     7.396     8.184     0.346     0.096     0.000  130752.8   967051.5
  873.500     7.407     8.190     0.346     0.096     0.000  131138.2   971284.1
  874.000     7.416     8.201     0.345     0.095     0.000  131093.4   972237.3
  874.500     7.426     8.209     0.345     0.095     0.000  131432.1   975972.4
  875.000     7.434     8.219     0.345     0.095     0.000  131424.3   977044.9
  875.500     7.442     8.226     0.345     0.095     0.000  131719.1   980309.0
  876.000     7.450     8.234     0.344     0.095     0.000  131835.7   982167.3
  876.500     7.457     8.241     0.344     0.095     0.000  132090.1   984992.2
  877.000     7.463     8.248     0.343     0.095     0.000  131707.5   982992.6
  877.500     7.470     8.251     0.343     0.095     0.000  131935.5   985530.8
  878.000     7.476     8.258     0.342     0.094     0.000  131573.9   983598.8
  878.500     7.481     8.261     0.342     0.094     0.000  131778.9   985889.1
  879.000     7.487     8.267     0.341     0.094     0.000  131752.2   986399.3
  879.500     7.492     8.271     0.341     0.094     0.000  131937.4   988480.5
  880.000     7.497     8.277     0.341     0.094     0.000  131775.8   987949.3
  880.500     7.503     8.281     0.341     0.094     0.000  131963.5   990072.3
  881.000     7.508     8.287     0.339     0.093     0.000  131380.1   986438.9
  881.500     7.515     8.290     0.339     0.093     0.000  131604.3   988984.6
  882.000     7.522     8.298     0.338     0.093     0.000  131169.0   986649.6
  882.500     7.530     8.303     0.338     0.093     0.000  131452.4   989875.2
  883.000     7.540     8.313     0.336     0.093     0.000  131154.7   988843.6
  883.500     7.550     8.321     0.336     0.093     0.000  131517.7   992982.6
  884.000     7.562     8.334     0.335     0.092     0.000  131314.4   992998.7
  884.500     7.575     8.345     0.335     0.092     0.000  131770.1   998210.5
  885.000     7.590     8.361     0.334     0.092     0.000  131867.4  1000873.6
  885.500     7.606     8.377     0.334     0.092     0.000  132410.2  1007110.2
  886.000     7.623     8.395     0.334     0.092     0.000  132710.7  1011645.7
  886.500     7.641     8.413     0.334     0.092     0.000  133315.8  1018636.2
  887.000     7.659     8.434     0.332     0.091     0.000  133382.6  1021577.2
  887.500     7.678     8.451     0.332     0.091     0.000  134008.4  1028850.6
  888.000     7.695     8.471     0.331     0.091     0.000  133967.6  1030946.2
  888.500     7.713     8.486     0.331     0.091     0.000  134551.2  1037769.2
  889.000     7.729     8.503     0.330     0.091     0.000  134322.8  1038125.9
  889.500     7.743     8.514     0.330     0.091     0.000  134798.0  1043710.9
  890.000     7.755     8.527     0.328     0.090     0.000  134481.4  1042837.3
  890.500     7.764     8.534     0.328     0.090     0.000  134794.1  1046531.5
  891.000     7.770     8.541     0.327     0.090     0.000  134210.5  1042869.9
  891.500     7.774     8.541     0.327     0.090     0.000  134339.7  1044409.3
  892.000     7.775     8.542     0.326     0.089     0.000  133860.4  1040827.6
  892.500     7.774     8.537     0.326     0.089     0.000  133811.5  1040270.8
  893.000     7.770     8.533     0.325     0.089     0.000  133220.6  1035177.6
  893.500     7.765     8.525     0.325     0.089     0.000  133030.4  1032958.7
  894.000     7.758     8.517     0.324     0.089     0.000  132518.0  1028011.1
  894.500     7.749     8.506     0.324     0.089     0.000  132230.0  1024647.9
  895.000     7.739     8.495     0.324     0.089     0.000  131905.5  1020865.5
  895.500     7.729     8.484     0.324     0.089     0.000  131556.8  1016797.7
  896.000     7.718     8.472     0.324     0.089     0.000  131033.3  1011314.5
  896.500     7.707     8.458     0.324     0.089     0.000  130658.0  1006947.5
  897.000     7.695     8.446     0.324     0.089     0.000  130358.2  1003137.0
  897.500     7.684     8.433     0.324     0.089     0.000  129968.5   998617.7
  898.000     7.672     8.421     0.324     0.089     0.000  129450.0   993114.3
  898.500     7.660     8.407     0.324     0.089     0.000  129064.6   988658.7
  899.000     7.649     8.394     0.324     0.089     0.000  128935.5   986195.3
  899.500     7.637     8.384     0.324     0.089     0.000  128560.7   981877.7
